Data from AbsoluteIrradiance__8__17-14-45-249.txt Node

Date: Fri Jul 22 17:14:45 EDT 2022
User: enochs
Spectrometer: FLMS17410
Trigger mode: 0
Integration Time (sec): 1.545400E-1
Scans to average: 5
Electric dark correction enabled: true
Nonlinearity correction enabled: true
Boxcar width: 5
XAxis mode: Wavelengths
Number of Pixels in Spectrum: 2048
>>>>>Begin Spectral Data<<<<<
179.501	-0
179.881	-0
180.261	-0
180.64	-0
181.02	-0
181.399	-0
181.779	0
182.158	0
182.537	0
182.917	0
183.296	0
183.675	0
184.055	0
184.434	0
184.813	-0
185.192	-0
185.571	-0
185.95	-0
186.329	0
186.708	0
187.087	0
187.466	0
187.845	0
188.224	0
188.603	0
188.982	0
189.361	0
189.739	0
190.118	0
190.497	0
190.875	0
191.254	0
191.632	0
192.011	0
192.39	0
192.768	0
193.146	0
193.525	0
193.903	0
194.282	0
194.66	0
195.038	0
195.416	0
195.794	0
196.173	0
196.551	0
196.929	0
197.307	0
197.685	0
198.063	0
198.441	0
198.819	0
199.197	0
199.575	0
199.952	0
200.33	6.79
200.708	6.61
201.086	6.51
201.463	6.88
201.841	6.53
202.218	5.92
202.596	5.82
202.974	5.37
203.351	5.29
203.729	4.94
204.106	4.83
204.483	4.54
204.861	3.91
205.238	3.41
205.615	2.72
205.993	2.62
206.37	2.62
206.747	2.65
207.124	2.58
207.501	2.47
207.878	2.39
208.255	2.16
208.632	2.01
209.009	1.92
209.386	2.07
209.763	2.06
210.14	1.84
210.517	1.85
210.894	1.75
211.271	1.64
211.647	1.58
212.024	1.56
212.401	1.63
212.777	1.6
213.154	1.66
213.531	1.54
213.907	1.61
214.284	1.67
214.66	1.56
215.036	1.53
215.413	1.53
215.789	1.55
216.166	1.63
216.542	1.49
216.918	1.43
217.294	1.37
217.67	1.38
218.047	1.24
218.423	1.14
218.799	1.11
219.175	1.04
219.551	0.99
219.927	0.93
220.303	0.81
220.679	0.8
221.054	0.8
221.43	0.78
221.806	0.8
222.182	0.79
222.558	0.8
222.933	0.83
223.309	0.83
223.685	0.82
224.06	0.8
224.436	0.79
224.811	0.79
225.187	0.75
225.562	0.73
225.938	0.7
226.313	0.7
226.688	0.71
227.064	0.65
227.439	0.66
227.814	0.65
228.189	0.61
228.564	0.59
228.94	0.6
229.315	0.56
229.69	0.56
230.065	0.54
230.44	0.52
230.815	0.49
231.19	0.5
231.564	0.47
231.939	0.46
232.314	0.47
232.689	0.46
233.064	0.46
233.438	0.46
233.813	0.48
234.188	0.48
234.562	0.48
234.937	0.48
235.311	0.45
235.686	0.43
236.06	0.42
236.435	0.39
236.809	0.39
237.183	0.37
237.558	0.38
237.932	0.36
238.306	0.33
238.68	0.33
239.055	0.33
239.429	0.33
239.803	0.33
240.177	0.34
240.551	0.33
240.925	0.32
241.299	0.32
241.673	0.29
242.047	0.28
242.42	0.28
242.794	0.26
243.168	0.25
243.542	0.25
243.915	0.25
244.289	0.25
244.663	0.25
245.036	0.25
245.41	0.25
245.783	0.24
246.157	0.22
246.53	0.22
246.904	0.21
247.277	0.21
247.651	0.21
248.024	0.21
248.397	0.21
248.77	0.21
249.144	0.2
249.517	0.2
249.89	0.2
250.263	0.2
250.636	0.2
251.009	0.2
251.382	0.2
251.755	0.19
252.128	0.18
252.501	0.19
252.874	0.17
253.246	0.18
253.619	0.17
253.992	0.18
254.365	0.17
254.737	0.17
255.11	0.16
255.483	0.16
255.855	0.15
256.228	0.15
256.6	0.13
256.973	0.14
257.345	0.14
257.717	0.13
258.09	0.12
258.462	0.13
258.834	0.13
259.206	0.13
259.579	0.14
259.951	0.14
260.323	0.14
260.695	0.14
261.067	0.14
261.439	0.14
261.811	0.13
262.183	0.14
262.555	0.13
262.927	0.13
263.299	0.13
263.67	0.13
264.042	0.13
264.414	0.12
264.786	0.12
265.157	0.12
265.529	0.12
265.9	0.12
266.272	0.11
266.643	0.11
267.015	0.11
267.386	0.11
267.758	0.11
268.129	0.08
268.5	0.08
268.872	0.08
269.243	0.07
269.614	0.07
269.985	0.08
270.357	0.07
270.728	0.08
271.099	0.08
271.47	0.08
271.841	0.08
272.212	0.1
272.583	0.1
272.953	0.1
273.324	0.1
273.695	0.1
274.066	0.1
274.437	0.1
274.807	0.09
275.178	0.09
275.549	0.09
275.919	0.08
276.29	0.08
276.66	0.09
277.031	0.08
277.401	0.08
277.772	0.09
278.142	0.09
278.512	0.08
278.883	0.1
279.253	0.09
279.623	0.1
279.993	0.1
280.364	0.1
280.734	0.1
281.104	0.1
281.474	0.1
281.844	0.1
282.214	0.1
282.584	0.1
282.954	0.1
283.323	0.1
283.693	0.09
284.063	0.1
284.433	0.1
284.802	0.09
285.172	0.09
285.542	0.1
285.911	0.1
286.281	0.09
286.65	0.09
287.02	0.09
287.389	0.09
287.759	0.09
288.128	0.08
288.498	0.08
288.867	0.08
289.236	0.08
289.605	0.08
289.975	0.08
290.344	0.08
290.713	0.08
291.082	0.08
291.451	0.08
291.82	0.08
292.189	0.07
292.558	0.08
292.927	0.08
293.296	0.08
293.664	0.07
294.033	0.07
294.402	0.07
294.771	0.08
295.139	0.08
295.508	0.07
295.877	0.08
296.245	0.08
296.614	0.08
296.982	0.08
297.351	0.08
297.719	0.08
298.087	0.09
298.456	0.09
298.824	0.08
299.192	0.08
299.561	0.08
299.929	0.08
300.297	0.08
300.665	0.08
301.033	0.08
301.401	0.08
301.769	0.07
302.137	0.07
302.505	0.07
302.873	0.07
303.241	0.07
303.609	0.07
303.976	0.07
304.344	0.07
304.712	0.07
305.079	0.07
305.447	0.07
305.815	0.07
306.182	0.07
306.55	0.07
306.917	0.07
307.285	0.07
307.652	0.07
308.019	0.07
308.387	0.07
308.754	0.07
309.121	0.07
309.489	0.06
309.856	0.06
310.223	0.06
310.59	0.06
310.957	0.06
311.324	0.06
311.691	0.06
312.058	0.06
312.425	0.06
312.792	0.06
313.159	0.06
313.525	0.06
313.892	0.06
314.259	0.06
314.626	0.06
314.992	0.06
315.359	0.06
315.725	0.06
316.092	0.06
316.459	0.06
316.825	0.06
317.191	0.06
317.558	0.05
317.924	0.05
318.29	0.05
318.657	0.05
319.023	0.05
319.389	0.05
319.755	0.06
320.121	0.06
320.488	0.06
320.854	0.06
321.22	0.06
321.586	0.06
321.952	0.06
322.317	0.06
322.683	0.05
323.049	0.05
323.415	0.05
323.781	0.05
324.146	0.05
324.512	0.05
324.878	0.05
325.243	0.05
325.609	0.05
325.974	0.05
326.34	0.05
326.705	0.05
327.071	0.05
327.436	0.05
327.801	0.05
328.167	0.05
328.532	0.05
328.897	0.05
329.262	0.05
329.627	0.05
329.992	0.05
330.357	0.05
330.722	0.05
331.087	0.05
331.452	0.05
331.817	0.04
332.182	0.04
332.547	0.05
332.912	0.05
333.277	0.05
333.641	0.04
334.006	0.04
334.371	0.04
334.735	0.04
335.1	0.04
335.464	0.04
335.829	0.05
336.193	0.05
336.558	0.05
336.922	0.04
337.286	0.05
337.651	0.05
338.015	0.05
338.379	0.05
338.743	0.05
339.107	0.04
339.471	0.04
339.836	0.04
340.2	0.04
340.564	0.04
340.927	0.04
341.291	0.04
341.655	0.04
342.019	0.04
342.383	0.03
342.747	0.04
343.11	0.04
343.474	0.04
343.838	0.04
344.201	0.04
344.565	0.04
344.928	0.04
345.292	0.04
345.655	0.04
346.019	0.04
346.382	0.05
346.745	0.05
347.109	0.05
347.472	0.05
347.835	0.05
348.198	0.04
348.561	0.04
348.925	0.05
349.288	0.05
349.651	0.04
350.014	0.04
350.377	0.04
350.739	0.04
351.102	0.04
351.465	0.04
351.828	0.04
352.191	0.04
352.553	0.04
352.916	0.04
353.279	0.04
353.641	0.04
354.004	0.04
354.366	0.04
354.729	0.04
355.091	0.04
355.454	0.04
355.816	0.04
356.178	0.04
356.541	0.04
356.903	0.04
357.265	0.04
357.627	0.04
357.989	0.04
358.351	0.04
358.714	0.04
359.076	0.04
359.437	0.04
359.799	0.04
360.161	0.04
360.523	0.04
360.885	0.04
361.247	0.04
361.608	0.04
361.97	0.04
362.332	0.04
362.693	0.04
363.055	0.04
363.417	0.04
363.778	0.04
364.14	0.04
364.501	0.04
364.862	0.04
365.224	0.04
365.585	0.04
365.946	0.04
366.307	0.03
366.669	0.03
367.03	0.04
367.391	0.03
367.752	0.03
368.113	0.03
368.474	0.03
368.835	0.04
369.196	0.04
369.557	0.04
369.918	0.04
370.278	0.04
370.639	0.04
371	0.04
371.361	0.04
371.721	0.04
372.082	0.04
372.442	0.04
372.803	0.04
373.163	0.04
373.524	0.04
373.884	0.04
374.245	0.04
374.605	0.04
374.965	0.04
375.325	0.04
375.686	0.04
376.046	0.04
376.406	0.04
376.766	0.04
377.126	0.04
377.486	0.04
377.846	0.04
378.206	0.04
378.566	0.04
378.926	0.04
379.285	0.04
379.645	0.04
380.005	0.04
380.365	0.04
380.724	0.04
381.084	0.04
381.443	0.04
381.803	0.04
382.163	0.04
382.522	0.04
382.881	0.04
383.241	0.04
383.6	0.04
383.959	0.04
384.319	0.04
384.678	0.05
385.037	0.04
385.396	0.05
385.755	0.05
386.114	0.05
386.473	0.05
386.832	0.05
387.191	0.06
387.55	0.06
387.909	0.06
388.268	0.06
388.627	0.06
388.985	0.07
389.344	0.07
389.703	0.08
390.061	0.08
390.42	0.09
390.778	0.09
391.137	0.1
391.495	0.1
391.854	0.11
392.212	0.12
392.57	0.13
392.929	0.14
393.287	0.15
393.645	0.16
394.003	0.17
394.362	0.18
394.72	0.19
395.078	0.21
395.436	0.22
395.794	0.24
396.152	0.26
396.51	0.27
396.867	0.29
397.225	0.31
397.583	0.33
397.941	0.36
398.298	0.38
398.656	0.41
399.014	0.43
399.371	0.46
399.729	0.48
400.086	0.52
400.444	0.55
400.801	0.58
401.159	0.62
401.516	0.65
401.873	0.68
402.23	0.72
402.588	0.76
402.945	0.8
403.302	0.85
403.659	0.89
404.016	0.93
404.373	0.97
404.73	1.02
405.087	1.07
405.444	1.11
405.801	1.17
406.158	1.24
406.514	1.32
406.871	1.4
407.228	1.46
407.584	1.52
407.941	1.57
408.298	1.62
408.654	1.66
409.011	1.7
409.367	1.74
409.723	1.77
410.08	1.78
410.436	1.78
410.792	1.78
411.149	1.78
411.505	1.79
411.861	1.8
412.217	1.82
412.573	1.83
412.929	1.84
413.285	1.84
413.641	1.85
413.997	1.85
414.353	1.85
414.709	1.84
415.065	1.84
415.42	1.83
415.776	1.82
416.132	1.81
416.487	1.8
416.843	1.79
417.199	1.77
417.554	1.75
417.91	1.74
418.265	1.72
418.62	1.7
418.976	1.68
419.331	1.66
419.686	1.64
420.042	1.62
420.397	1.6
420.752	1.58
421.107	1.56
421.462	1.55
421.817	1.53
422.172	1.52
422.527	1.51
422.882	1.5
423.237	1.49
423.592	1.49
423.946	1.49
424.301	1.49
424.656	1.5
425.01	1.51
425.365	1.52
425.72	1.54
426.074	1.56
426.429	1.58
426.783	1.61
427.137	1.64
427.492	1.68
427.846	1.72
428.2	1.77
428.555	1.82
428.909	1.87
429.263	1.93
429.617	1.98
429.971	2.05
430.325	2.12
430.679	2.19
431.033	2.27
431.387	2.34
431.741	2.42
432.095	2.51
432.449	2.59
432.802	2.68
433.156	2.78
433.51	2.88
433.863	2.97
434.217	3.08
434.571	3.19
434.924	3.3
435.278	3.42
435.631	3.54
435.984	3.67
436.338	3.81
436.691	3.96
437.044	4.15
437.397	4.39
437.751	4.67
438.104	4.93
438.457	5.17
438.81	5.39
439.163	5.61
439.516	5.82
439.869	6.02
440.222	6.23
440.575	6.44
440.927	6.63
441.28	6.76
441.633	6.89
441.986	7.04
442.338	7.23
442.691	7.46
443.043	7.7
443.396	7.96
443.748	8.24
444.101	8.52
444.453	8.81
444.805	9.09
445.158	9.39
445.51	9.67
445.862	9.95
446.214	10.23
446.567	10.5
446.919	10.75
447.271	10.97
447.623	11.2
447.975	11.4
448.327	11.59
448.679	11.76
449.03	11.89
449.382	12.01
449.734	12.11
450.086	12.17
450.437	12.21
450.789	12.24
451.141	12.25
451.492	12.22
451.844	12.15
452.195	12.06
452.547	11.95
452.898	11.81
453.249	11.65
453.601	11.46
453.952	11.25
454.303	11.02
454.654	10.77
455.005	10.5
455.357	10.23
455.708	9.94
456.059	9.64
456.41	9.35
456.76	9.05
457.111	8.73
457.462	8.43
457.813	8.13
458.164	7.83
458.515	7.55
458.865	7.28
459.216	7.01
459.566	6.75
459.917	6.49
460.267	6.25
460.618	6.03
460.968	5.81
461.319	5.61
461.669	5.41
462.019	5.22
462.37	5.04
462.72	4.86
463.07	4.7
463.42	4.55
463.77	4.41
464.12	4.28
464.47	4.15
464.82	4.03
465.17	3.91
465.52	3.8
465.87	3.7
466.22	3.59
466.569	3.5
466.919	3.4
467.269	3.31
467.618	3.22
467.968	3.13
468.318	3.05
468.667	2.96
469.017	2.88
469.366	2.8
469.715	2.72
470.065	2.65
470.414	2.57
470.763	2.5
471.112	2.43
471.462	2.36
471.811	2.29
472.16	2.22
472.509	2.16
472.858	2.11
473.207	2.05
473.556	1.99
473.905	1.94
474.253	1.89
474.602	1.84
474.951	1.79
475.3	1.75
475.648	1.71
475.997	1.67
476.345	1.63
476.694	1.59
477.042	1.56
477.391	1.53
477.739	1.5
478.088	1.47
478.436	1.45
478.784	1.42
479.132	1.4
479.481	1.38
479.829	1.37
480.177	1.35
480.525	1.34
480.873	1.32
481.221	1.31
481.569	1.3
481.917	1.29
482.265	1.28
482.612	1.27
482.96	1.26
483.308	1.25
483.656	1.24
484.003	1.24
484.351	1.24
484.698	1.24
485.046	1.24
485.393	1.24
485.741	1.24
486.088	1.25
486.435	1.26
486.783	1.27
487.13	1.28
487.477	1.3
487.824	1.31
488.171	1.33
488.518	1.35
488.866	1.37
489.212	1.39
489.559	1.41
489.906	1.43
490.253	1.45
490.6	1.46
490.947	1.47
491.294	1.47
491.64	1.48
491.987	1.48
492.333	1.49
492.68	1.49
493.027	1.49
493.373	1.49
493.719	1.5
494.066	1.5
494.412	1.51
494.759	1.51
495.105	1.52
495.451	1.53
495.797	1.55
496.143	1.56
496.489	1.57
496.835	1.59
497.181	1.61
497.527	1.62
497.873	1.64
498.219	1.67
498.565	1.69
498.911	1.71
499.257	1.74
499.602	1.76
499.948	1.79
500.294	1.81
500.639	1.84
500.985	1.87
501.33	1.9
501.676	1.93
502.021	1.96
502.366	1.99
502.712	2.03
503.057	2.06
503.402	2.1
503.747	2.13
504.092	2.17
504.438	2.2
504.783	2.24
505.128	2.28
505.473	2.32
505.817	2.36
506.162	2.4
506.507	2.44
506.852	2.48
507.197	2.52
507.541	2.57
507.886	2.61
508.231	2.65
508.575	2.69
508.92	2.74
509.264	2.78
509.609	2.83
509.953	2.88
510.297	2.92
510.642	2.97
510.986	3.02
511.33	3.07
511.674	3.12
512.019	3.16
512.363	3.21
512.707	3.26
513.051	3.31
513.395	3.36
513.739	3.4
514.083	3.45
514.426	3.49
514.77	3.54
515.114	3.59
515.458	3.63
515.801	3.68
516.145	3.73
516.488	3.77
516.832	3.82
517.175	3.86
517.519	3.9
517.862	3.95
518.206	3.99
518.549	4.04
518.892	4.08
519.235	4.12
519.579	4.16
519.922	4.2
520.265	4.24
520.608	4.29
520.951	4.33
521.294	4.37
521.637	4.41
521.98	4.45
522.323	4.49
522.665	4.53
523.008	4.57
523.351	4.6
523.693	4.64
524.036	4.68
524.379	4.71
524.721	4.75
525.064	4.79
525.406	4.82
525.748	4.86
526.091	4.89
526.433	4.93
526.775	4.96
527.118	5
527.46	5.03
527.802	5.06
528.144	5.09
528.486	5.11
528.828	5.14
529.17	5.17
529.512	5.2
529.854	5.22
530.195	5.25
530.537	5.27
530.879	5.3
531.221	5.32
531.562	5.34
531.904	5.36
532.245	5.39
532.587	5.41
532.928	5.43
533.27	5.45
533.611	5.47
533.953	5.48
534.294	5.5
534.635	5.52
534.976	5.53
535.317	5.55
535.659	5.57
536	5.58
536.341	5.6
536.682	5.61
537.023	5.63
537.363	5.64
537.704	5.66
538.045	5.67
538.386	5.69
538.727	5.7
539.067	5.72
539.408	5.73
539.748	5.76
540.089	5.78
540.429	5.8
540.77	5.83
541.11	5.86
541.451	5.9
541.791	5.94
542.131	5.99
542.471	6.05
542.812	6.14
543.152	6.23
543.492	6.33
543.832	6.45
544.172	6.56
544.512	6.66
544.852	6.76
545.192	6.85
545.531	6.93
545.871	7
546.211	7.06
546.551	7.09
546.89	7.12
547.23	7.15
547.57	7.21
547.909	7.27
548.248	7.33
548.588	7.36
548.927	7.37
549.267	7.37
549.606	7.35
549.945	7.33
550.284	7.3
550.623	7.26
550.963	7.18
551.302	7.07
551.641	6.94
551.98	6.81
552.319	6.71
552.657	6.63
552.996	6.55
553.335	6.49
553.674	6.43
554.013	6.37
554.351	6.32
554.69	6.28
555.028	6.24
555.367	6.21
555.705	6.18
556.044	6.15
556.382	6.12
556.721	6.09
557.059	6.07
557.397	6.05
557.735	6.03
558.074	6.01
558.412	5.99
558.75	5.98
559.088	5.97
559.426	5.95
559.764	5.94
560.102	5.93
560.439	5.92
560.777	5.91
561.115	5.91
561.453	5.9
561.79	5.9
562.128	5.89
562.466	5.89
562.803	5.88
563.141	5.88
563.478	5.87
563.816	5.87
564.153	5.87
564.49	5.87
564.827	5.87
565.165	5.87
565.502	5.86
565.839	5.86
566.176	5.86
566.513	5.86
566.85	5.86
567.187	5.85
567.524	5.85
567.861	5.85
568.198	5.84
568.534	5.84
568.871	5.84
569.208	5.84
569.544	5.83
569.881	5.83
570.218	5.83
570.554	5.82
570.891	5.82
571.227	5.82
571.563	5.81
571.9	5.81
572.236	5.8
572.572	5.8
572.908	5.79
573.244	5.79
573.581	5.78
573.917	5.77
574.253	5.77
574.588	5.76
574.924	5.75
575.26	5.74
575.596	5.74
575.932	5.73
576.268	5.72
576.603	5.71
576.939	5.7
577.274	5.69
577.61	5.69
577.946	5.69
578.281	5.69
578.616	5.7
578.952	5.71
579.287	5.71
579.622	5.72
579.958	5.72
580.293	5.73
580.628	5.74
580.963	5.75
581.298	5.76
581.633	5.76
581.968	5.76
582.303	5.76
582.638	5.74
582.973	5.73
583.307	5.73
583.642	5.72
583.977	5.71
584.311	5.7
584.646	5.69
584.98	5.68
585.315	5.67
585.649	5.66
585.984	5.66
586.318	5.65
586.652	5.65
586.987	5.64
587.321	5.64
587.655	5.63
587.989	5.62
588.323	5.61
588.657	5.61
588.991	5.6
589.325	5.6
589.659	5.59
589.993	5.58
590.327	5.57
590.661	5.55
590.994	5.53
591.328	5.52
591.662	5.49
591.995	5.47
592.329	5.43
592.662	5.4
592.996	5.36
593.329	5.33
593.662	5.3
593.996	5.28
594.329	5.26
594.662	5.24
594.995	5.23
595.328	5.23
595.661	5.22
595.994	5.21
596.327	5.19
596.66	5.17
596.993	5.15
597.326	5.13
597.659	5.1
597.992	5.07
598.324	5.04
598.657	5.01
598.99	4.97
599.322	4.94
599.655	4.91
599.987	4.88
600.32	4.86
600.652	4.84
600.984	4.82
601.317	4.81
601.649	4.79
601.981	4.78
602.313	4.77
602.645	4.75
602.977	4.73
603.309	4.72
603.641	4.7
603.973	4.68
604.305	4.66
604.637	4.63
604.969	4.6
605.3	4.57
605.632	4.54
605.964	4.52
606.295	4.49
606.627	4.47
606.958	4.45
607.29	4.43
607.621	4.41
607.952	4.39
608.284	4.38
608.615	4.37
608.946	4.36
609.277	4.34
609.609	4.33
609.94	4.32
610.271	4.32
610.602	4.32
610.933	4.32
611.263	4.33
611.594	4.35
611.925	4.4
612.256	4.48
612.587	4.62
612.917	4.81
613.248	5.01
613.578	5.21
613.909	5.37
614.239	5.51
614.57	5.62
614.9	5.71
615.23	5.77
615.561	5.8
615.891	5.78
616.221	5.69
616.551	5.54
616.881	5.36
617.211	5.18
617.541	5.01
617.871	4.87
618.201	4.74
618.531	4.63
618.861	4.52
619.191	4.42
619.52	4.33
619.85	4.25
620.18	4.17
620.509	4.1
620.839	4.04
621.168	3.99
621.498	3.95
621.827	3.91
622.157	3.88
622.486	3.85
622.815	3.83
623.144	3.8
623.473	3.78
623.803	3.76
624.132	3.75
624.461	3.73
624.79	3.71
625.119	3.69
625.447	3.68
625.776	3.65
626.105	3.63
626.434	3.61
626.762	3.59
627.091	3.57
627.42	3.54
627.748	3.52
628.077	3.5
628.405	3.47
628.734	3.45
629.062	3.42
629.39	3.4
629.719	3.38
630.047	3.35
630.375	3.33
630.703	3.31
631.031	3.28
631.359	3.26
631.687	3.24
632.015	3.23
632.343	3.22
632.671	3.21
632.999	3.2
633.326	3.2
633.654	3.19
633.982	3.18
634.309	3.16
634.637	3.14
634.964	3.11
635.292	3.08
635.619	3.05
635.947	3.01
636.274	2.97
636.601	2.93
636.928	2.89
637.256	2.85
637.583	2.82
637.91	2.79
638.237	2.76
638.564	2.74
638.891	2.73
639.218	2.71
639.544	2.69
639.871	2.68
640.198	2.66
640.525	2.65
640.851	2.63
641.178	2.62
641.504	2.61
641.831	2.59
642.157	2.58
642.484	2.56
642.81	2.55
643.137	2.54
643.463	2.52
643.789	2.51
644.115	2.49
644.441	2.48
644.767	2.47
645.093	2.45
645.419	2.44
645.745	2.43
646.071	2.42
646.397	2.4
646.723	2.39
647.049	2.38
647.374	2.37
647.7	2.35
648.026	2.34
648.351	2.33
648.677	2.31
649.002	2.3
649.328	2.29
649.653	2.27
649.978	2.26
650.303	2.25
650.629	2.24
650.954	2.22
651.279	2.21
651.604	2.2
651.929	2.19
652.254	2.18
652.579	2.17
652.904	2.17
653.229	2.16
653.554	2.15
653.878	2.14
654.203	2.13
654.528	2.12
654.852	2.1
655.177	2.09
655.501	2.07
655.826	2.05
656.15	2.04
656.474	2.02
656.799	2
657.123	1.98
657.447	1.97
657.771	1.95
658.096	1.94
658.42	1.92
658.744	1.9
659.068	1.89
659.392	1.87
659.715	1.86
660.039	1.85
660.363	1.84
660.687	1.83
661.01	1.81
661.334	1.8
661.658	1.78
661.981	1.77
662.305	1.76
662.628	1.75
662.952	1.73
663.275	1.72
663.598	1.7
663.921	1.69
664.245	1.68
664.568	1.68
664.891	1.67
665.214	1.66
665.537	1.65
665.86	1.64
666.183	1.64
666.506	1.63
666.828	1.62
667.151	1.6
667.474	1.59
667.797	1.58
668.119	1.56
668.442	1.54
668.764	1.53
669.087	1.52
669.409	1.51
669.732	1.49
670.054	1.48
670.376	1.47
670.698	1.46
671.021	1.45
671.343	1.44
671.665	1.43
671.987	1.42
672.309	1.41
672.631	1.4
672.953	1.39
673.275	1.38
673.596	1.37
673.918	1.36
674.24	1.35
674.561	1.34
674.883	1.33
675.205	1.32
675.526	1.31
675.848	1.3
676.169	1.29
676.49	1.28
676.812	1.27
677.133	1.27
677.454	1.26
677.775	1.25
678.096	1.24
678.417	1.23
678.739	1.22
679.059	1.21
679.38	1.2
679.701	1.19
680.022	1.18
680.343	1.18
680.664	1.17
680.984	1.16
681.305	1.15
681.625	1.15
681.946	1.14
682.266	1.13
682.587	1.12
682.907	1.12
683.228	1.11
683.548	1.1
683.868	1.09
684.188	1.09
684.508	1.08
684.829	1.07
685.149	1.06
685.469	1.05
685.789	1.04
686.108	1.04
686.428	1.02
686.748	1.01
687.068	1
687.387	1
687.707	0.99
688.027	0.98
688.346	0.98
688.666	0.98
688.985	0.97
689.305	0.97
689.624	0.97
689.943	0.96
690.263	0.96
690.582	0.96
690.901	0.95
691.22	0.95
691.539	0.94
691.858	0.93
692.177	0.92
692.496	0.91
692.815	0.9
693.134	0.88
693.452	0.87
693.771	0.86
694.09	0.85
694.408	0.84
694.727	0.83
695.045	0.82
695.364	0.82
695.682	0.82
696.001	0.82
696.319	0.81
696.637	0.81
696.956	0.8
697.274	0.8
697.592	0.79
697.91	0.79
698.228	0.78
698.546	0.77
698.864	0.76
699.182	0.75
699.499	0.74
699.817	0.73
700.135	0.73
700.453	0.72
700.77	0.71
701.088	0.7
701.405	0.69
701.723	0.69
702.04	0.68
702.358	0.68
702.675	0.67
702.992	0.67
703.31	0.66
703.627	0.66
703.944	0.65
704.261	0.65
704.578	0.64
704.895	0.64
705.212	0.64
705.529	0.63
705.846	0.63
706.162	0.63
706.479	0.63
706.796	0.63
707.112	0.63
707.429	0.63
707.746	0.63
708.062	0.63
708.378	0.64
708.695	0.66
709.011	0.66
709.327	0.67
709.644	0.68
709.96	0.68
710.276	0.69
710.592	0.7
710.908	0.7
711.224	0.71
711.54	0.71
711.856	0.7
712.172	0.68
712.488	0.67
712.803	0.65
713.119	0.64
713.435	0.63
713.75	0.62
714.066	0.62
714.381	0.6
714.697	0.6
715.012	0.59
715.327	0.59
715.643	0.58
715.958	0.58
716.273	0.57
716.588	0.57
716.903	0.55
717.218	0.53
717.533	0.51
717.848	0.5
718.163	0.48
718.478	0.47
718.793	0.45
719.108	0.45
719.422	0.44
719.737	0.44
720.052	0.43
720.366	0.43
720.681	0.42
720.995	0.42
721.309	0.41
721.624	0.41
721.938	0.4
722.252	0.39
722.566	0.39
722.881	0.38
723.195	0.38
723.509	0.37
723.823	0.37
724.137	0.37
724.45	0.36
724.764	0.36
725.078	0.35
725.392	0.35
725.706	0.35
726.019	0.35
726.333	0.34
726.646	0.34
726.96	0.34
727.273	0.33
727.587	0.32
727.9	0.32
728.213	0.32
728.526	0.31
728.84	0.31
729.153	0.3
729.466	0.3
729.779	0.29
730.092	0.28
730.405	0.28
730.718	0.28
731.03	0.28
731.343	0.28
731.656	0.27
731.969	0.27
732.281	0.27
732.594	0.27
732.906	0.27
733.219	0.27
733.531	0.26
733.844	0.26
734.156	0.26
734.468	0.25
734.78	0.25
735.093	0.25
735.405	0.24
735.717	0.23
736.029	0.23
736.341	0.22
736.653	0.22
736.965	0.22
737.276	0.22
737.588	0.22
737.9	0.21
738.211	0.21
738.523	0.21
738.835	0.21
739.146	0.21
739.458	0.21
739.769	0.21
740.08	0.2
740.392	0.2
740.703	0.2
741.014	0.2
741.325	0.2
741.636	0.2
741.947	0.2
742.258	0.2
742.569	0.19
742.88	0.19
743.191	0.19
743.502	0.19
743.813	0.19
744.123	0.19
744.434	0.18
744.745	0.18
745.055	0.18
745.366	0.18
745.676	0.18
745.987	0.18
746.297	0.19
746.607	0.19
746.917	0.18
747.228	0.19
747.538	0.19
747.848	0.19
748.158	0.19
748.468	0.18
748.778	0.18
749.088	0.17
749.397	0.17
749.707	0.16
750.017	0.16
750.327	0.16
750.636	0.15
750.946	0.15
751.255	0.15
751.565	0.15
751.874	0.15
752.184	0.15
752.493	0.14
752.802	0.15
753.111	0.15
753.421	0.15
753.73	0.15
754.039	0.15
754.348	0.14
754.657	0.14
754.966	0.14
755.274	0.14
755.583	0.15
755.892	0.15
756.201	0.14
756.509	0.15
756.818	0.15
757.127	0.14
757.435	0.14
757.743	0.15
758.052	0.15
758.36	0.15
758.668	0.16
758.977	0.15
759.285	0.15
759.593	0.15
759.901	0.15
760.209	0.15
760.517	0.16
760.825	0.16
761.133	0.15
761.441	0.15
761.749	0.16
762.056	0.15
762.364	0.16
762.672	0.16
762.979	0.16
763.287	0.16
763.594	0.16
763.902	0.15
764.209	0.15
764.516	0.15
764.823	0.15
765.131	0.15
765.438	0.14
765.745	0.14
766.052	0.13
766.359	0.14
766.666	0.14
766.973	0.14
767.28	0.14
767.587	0.14
767.893	0.14
768.2	0.13
768.507	0.13
768.813	0.14
769.12	0.13
769.426	0.13
769.733	0.13
770.039	0.12
770.345	0.12
770.652	0.12
770.958	0.11
771.264	0.11
771.57	0.11
771.876	0.11
772.182	0.11
772.488	0.11
772.794	0.11
773.1	0.11
773.406	0.11
773.712	0.11
774.017	0.11
774.323	0.12
774.628	0.11
774.934	0.11
775.24	0.1
775.545	0.1
775.85	0.1
776.156	0.1
776.461	0.11
776.766	0.11
777.071	0.1
777.377	0.1
777.682	0.1
777.987	0.1
778.292	0.09
778.597	0.1
778.901	0.09
779.206	0.1
779.511	0.1
779.816	0.09
780.12	0.09
780.425	0.1
780.73	0.1
781.034	0.09
781.339	0.09
781.643	0.1
781.947	0.1
782.252	0.1
782.556	0.1
782.86	0.1
783.164	0.11
783.468	0.12
783.772	0.12
784.076	0.12
784.38	0.14
784.684	0.14
784.988	0.14
785.292	0.14
785.595	0.15
785.899	0.14
786.203	0.15
786.506	0.13
786.81	0.12
787.113	0.12
787.417	0.13
787.72	0.13
788.023	0.12
788.327	0.12
788.63	0.11
788.933	0.11
789.236	0.13
789.539	0.13
789.842	0.15
790.145	0.15
790.448	0.15
790.751	0.15
791.054	0.14
791.356	0.15
791.659	0.14
791.962	0.13
792.264	0.13
792.567	0.12
792.869	0.11
793.172	0.1
793.474	0.1
793.776	0.09
794.078	0.09
794.381	0.09
794.683	0.09
794.985	0.1
795.287	0.11
795.589	0.11
795.891	0.1
796.193	0.1
796.495	0.1
796.796	0.12
797.098	0.11
797.4	0.11
797.701	0.11
798.003	0.12
798.304	0.12
798.606	0.13
798.907	0.12
799.209	0.14
799.51	0.13
799.811	0.14
800.112	0.13
800.414	0.12
800.715	0.12
801.016	0.11
801.317	0.1
801.618	0.09
801.919	0.09
802.219	0.09
802.52	0.08
802.821	0.08
803.122	0.08
803.422	0.08
803.723	0.1
804.023	0.11
804.324	0.11
804.624	0.14
804.924	0.15
805.225	0.15
805.525	0.14
805.825	0.15
806.125	0.16
806.425	0.15
806.725	0.15
807.025	0.13
807.325	0.14
807.625	0.14
807.925	0.13
808.225	0.13
808.525	0.13
808.824	0.12
809.124	0.11
809.423	0.1
809.723	0.11
810.022	0.11
810.322	0.11
810.621	0.1
810.92	0.1
811.22	0.08
811.519	0.06
811.818	0.06
812.117	0.07
812.416	0.08
812.715	0.1
813.014	0.08
813.313	0.07
813.612	0.08
813.91	0.09
814.209	0.08
814.508	0.12
814.806	0.12
815.105	0.11
815.403	0.12
815.702	0.11
816	0.13
816.298	0.14
816.597	0.17
816.895	0.14
817.193	0.12
817.491	0.12
817.789	0.12
818.087	0.16
818.385	0.17
818.683	0.17
818.981	0.18
819.279	0.14
819.577	0.17
819.874	0.17
820.172	0.19
820.469	0.2
820.767	0.18
821.064	0.17
821.362	0.13
821.659	0.13
821.957	0.14
822.254	0.14
822.551	0.13
822.848	0.12
823.145	0.09
823.442	0.11
823.739	0.1
824.036	0.14
824.333	0.13
824.63	0.14
824.927	0.09
825.223	0.09
825.52	0.09
825.817	0.09
826.113	0.06
826.41	0.07
826.706	0.05
827.003	0.07
827.299	0.06
827.595	0.08
827.892	0.08
828.188	0.15
828.484	0.16
828.78	0.14
829.076	0.15
829.372	0.17
829.668	0.18
829.964	0.16
830.26	0.17
830.555	0.16
830.851	0.16
831.147	0.17
831.442	0.15
831.738	0.14
832.033	0.13
832.329	0.14
832.624	0.17
832.919	0.17
833.215	0.21
833.51	0.23
833.805	0.24
834.1	0.24
834.395	0.25
834.69	0.26
834.985	0.33
835.28	0.35
835.575	0.35
835.87	0.31
836.164	0.3
836.459	0.28
836.754	0.24
837.048	0.25
837.343	0.22
837.637	0.21
837.932	0.18
838.226	0.1
838.52	0.08
838.814	0.07
839.109	0.09
839.403	0.12
839.697	0.09
839.991	0.1
840.285	0.06
840.579	0.04
840.873	0.02
841.166	0.04
841.46	0.05
841.754	0.07
842.047	0.09
842.341	0.09
842.635	0.03
842.928	0.09
843.222	0.09
843.515	0.1
843.808	0.19
844.101	0.2
844.395	0.16
844.688	0.18
844.981	0.15
845.274	0.1
845.567	0.1
845.86	0.15
846.153	0.12
846.446	0.15
846.738	0.17
847.031	0.06
847.324	0.09
847.616	0.12
847.909	0.15
848.201	0.24
848.494	0.25
848.786	0.21
849.079	0.21
849.371	0.2
849.663	0.18
849.955	0.18
850.247	0.23
850.539	0.22
850.831	0.24
851.123	0.19
851.415	0.19
851.707	0.25
851.999	0.24
852.291	0.24
852.582	0.29
852.874	0.33
853.166	0.32
853.457	0.36
853.749	0.3
854.04	0.32
854.331	0.39
854.623	0.32
854.914	0.33
855.205	0.4
855.496	0.36
855.787	0.43
856.078	0.36
856.369	0.49
856.66	0.56
856.951	0.73
857.242	0.78
857.533	0.75
857.823	0.78
858.114	0.8
858.404	0.82
858.695	0.86
858.985	0.84
859.276	0.83
859.566	0.75
859.857	0.7
860.147	0.58
860.437	0.6
860.727	0.58
861.017	0.57
861.307	0.44
861.597	0.42
861.887	0.34
862.177	0.35
862.467	0.5
862.757	0.49
863.046	0.5
863.336	0.49
863.626	0.35
863.915	0.43
864.205	0.45
864.494	0.55
864.783	0.46
865.073	0.62
865.362	0.6
865.651	0.4
865.94	0.54
866.229	0.51
866.518	0.57
866.807	0.7
867.096	0.62
867.385	0.68
867.674	0.78
867.963	1.03
868.252	1.12
868.54	1.07
868.829	1.23
869.117	1.04
869.406	1.08
869.694	1.21
869.983	1.14
870.271	1.23
870.559	1.2
