Data from AbsoluteIrradiance__5__17-13-33-101.txt Node

Date: Fri Jul 22 17:13:33 EDT 2022
User: enochs
Spectrometer: FLMS17410
Trigger mode: 0
Integration Time (sec): 1.545400E-1
Scans to average: 5
Electric dark correction enabled: true
Nonlinearity correction enabled: true
Boxcar width: 5
XAxis mode: Wavelengths
Number of Pixels in Spectrum: 2048
>>>>>Begin Spectral Data<<<<<
179.501	0
179.881	0
180.261	0
180.64	0
181.02	0
181.399	0
181.779	0
182.158	0
182.537	0
182.917	0
183.296	0
183.675	0
184.055	0
184.434	-0
184.813	-0
185.192	-0
185.571	-0
185.95	-0
186.329	-0
186.708	-0
187.087	-0
187.466	-0
187.845	-0
188.224	0
188.603	0
188.982	0
189.361	0
189.739	0
190.118	0
190.497	0
190.875	0
191.254	0
191.632	0
192.011	0
192.39	0
192.768	0
193.146	0
193.525	0
193.903	0
194.282	0
194.66	0
195.038	0
195.416	0
195.794	0
196.173	0
196.551	0
196.929	0
197.307	0
197.685	0
198.063	0
198.441	0
198.819	0
199.197	0
199.575	0
199.952	0
200.33	3.18
200.708	3.24
201.086	3.16
201.463	3.46
201.841	3.46
202.218	3.59
202.596	3.45
202.974	3.29
203.351	3.31
203.729	2.94
204.106	3.09
204.483	2.55
204.861	2.31
205.238	2.26
205.615	1.85
205.993	1.74
206.37	1.62
206.747	1.62
207.124	1.7
207.501	1.71
207.878	1.53
208.255	1.48
208.632	1.57
209.009	1.42
209.386	1.4
209.763	1.37
210.14	1.24
210.517	1.24
210.894	1.2
211.271	1.11
211.647	0.93
212.024	0.97
212.401	0.86
212.777	0.81
213.154	0.84
213.531	0.86
213.907	0.96
214.284	0.95
214.66	0.79
215.036	0.77
215.413	0.74
215.789	0.78
216.166	0.92
216.542	0.89
216.918	0.9
217.294	0.93
217.67	0.9
218.047	0.78
218.423	0.71
218.799	0.75
219.175	0.68
219.551	0.67
219.927	0.61
220.303	0.53
220.679	0.51
221.054	0.46
221.43	0.46
221.806	0.45
222.182	0.47
222.558	0.51
222.933	0.51
223.309	0.53
223.685	0.49
224.06	0.52
224.436	0.47
224.811	0.5
225.187	0.48
225.562	0.45
225.938	0.43
226.313	0.41
226.688	0.43
227.064	0.41
227.439	0.43
227.814	0.44
228.189	0.41
228.564	0.41
228.94	0.37
229.315	0.36
229.69	0.36
230.065	0.35
230.44	0.35
230.815	0.3
231.19	0.3
231.564	0.26
231.939	0.25
232.314	0.26
232.689	0.25
233.064	0.25
233.438	0.25
233.813	0.24
234.188	0.23
234.562	0.21
234.937	0.23
235.311	0.21
235.686	0.19
236.06	0.2
236.435	0.19
236.809	0.2
237.183	0.19
237.558	0.18
237.932	0.18
238.306	0.18
238.68	0.19
239.055	0.18
239.429	0.19
239.803	0.2
240.177	0.19
240.551	0.19
240.925	0.19
241.299	0.2
241.673	0.19
242.047	0.17
242.42	0.18
242.794	0.17
243.168	0.16
243.542	0.16
243.915	0.17
244.289	0.17
244.663	0.18
245.036	0.16
245.41	0.16
245.783	0.16
246.157	0.16
246.53	0.15
246.904	0.15
247.277	0.15
247.651	0.16
248.024	0.15
248.397	0.15
248.77	0.15
249.144	0.14
249.517	0.14
249.89	0.15
250.263	0.15
250.636	0.15
251.009	0.14
251.382	0.14
251.755	0.13
252.128	0.12
252.501	0.13
252.874	0.12
253.246	0.13
253.619	0.12
253.992	0.11
254.365	0.11
254.737	0.1
255.11	0.1
255.483	0.1
255.855	0.09
256.228	0.09
256.6	0.08
256.973	0.08
257.345	0.07
257.717	0.07
258.09	0.06
258.462	0.07
258.834	0.06
259.206	0.06
259.579	0.06
259.951	0.07
260.323	0.07
260.695	0.07
261.067	0.08
261.439	0.07
261.811	0.07
262.183	0.08
262.555	0.08
262.927	0.08
263.299	0.08
263.67	0.07
264.042	0.08
264.414	0.07
264.786	0.06
265.157	0.06
265.529	0.07
265.9	0.06
266.272	0.06
266.643	0.06
267.015	0.06
267.386	0.05
267.758	0.06
268.129	0.05
268.5	0.05
268.872	0.05
269.243	0.05
269.614	0.05
269.985	0.06
270.357	0.06
270.728	0.06
271.099	0.05
271.47	0.05
271.841	0.05
272.212	0.06
272.583	0.05
272.953	0.05
273.324	0.05
273.695	0.05
274.066	0.05
274.437	0.05
274.807	0.05
275.178	0.05
275.549	0.04
275.919	0.04
276.29	0.04
276.66	0.04
277.031	0.04
277.401	0.04
277.772	0.04
278.142	0.04
278.512	0.04
278.883	0.05
279.253	0.04
279.623	0.05
279.993	0.05
280.364	0.05
280.734	0.05
281.104	0.05
281.474	0.05
281.844	0.05
282.214	0.04
282.584	0.05
282.954	0.05
283.323	0.05
283.693	0.05
284.063	0.05
284.433	0.05
284.802	0.05
285.172	0.05
285.542	0.05
285.911	0.05
286.281	0.05
286.65	0.05
287.02	0.05
287.389	0.05
287.759	0.04
288.128	0.04
288.498	0.04
288.867	0.04
289.236	0.04
289.605	0.04
289.975	0.04
290.344	0.04
290.713	0.04
291.082	0.04
291.451	0.04
291.82	0.04
292.189	0.04
292.558	0.05
292.927	0.05
293.296	0.05
293.664	0.04
294.033	0.04
294.402	0.04
294.771	0.05
295.139	0.05
295.508	0.04
295.877	0.05
296.245	0.05
296.614	0.05
296.982	0.05
297.351	0.05
297.719	0.05
298.087	0.05
298.456	0.05
298.824	0.04
299.192	0.04
299.561	0.04
299.929	0.03
300.297	0.03
300.665	0.03
301.033	0.03
301.401	0.03
301.769	0.03
302.137	0.03
302.505	0.03
302.873	0.03
303.241	0.03
303.609	0.03
303.976	0.03
304.344	0.03
304.712	0.03
305.079	0.04
305.447	0.04
305.815	0.04
306.182	0.04
306.55	0.04
306.917	0.04
307.285	0.04
307.652	0.04
308.019	0.04
308.387	0.04
308.754	0.04
309.121	0.04
309.489	0.04
309.856	0.03
310.223	0.03
310.59	0.03
310.957	0.03
311.324	0.03
311.691	0.04
312.058	0.03
312.425	0.03
312.792	0.03
313.159	0.03
313.525	0.04
313.892	0.03
314.259	0.04
314.626	0.04
314.992	0.04
315.359	0.04
315.725	0.04
316.092	0.03
316.459	0.04
316.825	0.04
317.191	0.03
317.558	0.03
317.924	0.03
318.29	0.03
318.657	0.03
319.023	0.03
319.389	0.03
319.755	0.04
320.121	0.04
320.488	0.04
320.854	0.04
321.22	0.04
321.586	0.04
321.952	0.04
322.317	0.04
322.683	0.03
323.049	0.03
323.415	0.03
323.781	0.03
324.146	0.03
324.512	0.03
324.878	0.03
325.243	0.02
325.609	0.02
325.974	0.02
326.34	0.02
326.705	0.03
327.071	0.03
327.436	0.03
327.801	0.03
328.167	0.03
328.532	0.03
328.897	0.03
329.262	0.03
329.627	0.03
329.992	0.03
330.357	0.03
330.722	0.03
331.087	0.03
331.452	0.03
331.817	0.03
332.182	0.03
332.547	0.03
332.912	0.02
333.277	0.02
333.641	0.02
334.006	0.02
334.371	0.02
334.735	0.02
335.1	0.02
335.464	0.02
335.829	0.02
336.193	0.02
336.558	0.02
336.922	0.02
337.286	0.02
337.651	0.02
338.015	0.02
338.379	0.03
338.743	0.03
339.107	0.03
339.471	0.03
339.836	0.02
340.2	0.02
340.564	0.02
340.927	0.03
341.291	0.03
341.655	0.02
342.019	0.02
342.383	0.02
342.747	0.02
343.11	0.03
343.474	0.03
343.838	0.03
344.201	0.02
344.565	0.02
344.928	0.02
345.292	0.02
345.655	0.02
346.019	0.02
346.382	0.02
346.745	0.02
347.109	0.02
347.472	0.02
347.835	0.02
348.198	0.02
348.561	0.02
348.925	0.02
349.288	0.02
349.651	0.02
350.014	0.02
350.377	0.02
350.739	0.02
351.102	0.02
351.465	0.02
351.828	0.02
352.191	0.02
352.553	0.02
352.916	0.03
353.279	0.02
353.641	0.02
354.004	0.02
354.366	0.02
354.729	0.02
355.091	0.02
355.454	0.02
355.816	0.02
356.178	0.02
356.541	0.02
356.903	0.02
357.265	0.02
357.627	0.03
357.989	0.02
358.351	0.02
358.714	0.02
359.076	0.02
359.437	0.02
359.799	0.02
360.161	0.02
360.523	0.02
360.885	0.02
361.247	0.02
361.608	0.02
361.97	0.02
362.332	0.02
362.693	0.02
363.055	0.02
363.417	0.01
363.778	0.02
364.14	0.02
364.501	0.02
364.862	0.02
365.224	0.02
365.585	0.02
365.946	0.02
366.307	0.02
366.669	0.02
367.03	0.02
367.391	0.02
367.752	0.02
368.113	0.02
368.474	0.02
368.835	0.02
369.196	0.02
369.557	0.02
369.918	0.02
370.278	0.02
370.639	0.02
371	0.02
371.361	0.02
371.721	0.03
372.082	0.02
372.442	0.02
372.803	0.02
373.163	0.02
373.524	0.03
373.884	0.03
374.245	0.03
374.605	0.02
374.965	0.02
375.325	0.02
375.686	0.02
376.046	0.02
376.406	0.02
376.766	0.02
377.126	0.02
377.486	0.02
377.846	0.02
378.206	0.02
378.566	0.02
378.926	0.02
379.285	0.02
379.645	0.02
380.005	0.02
380.365	0.02
380.724	0.02
381.084	0.02
381.443	0.02
381.803	0.01
382.163	0.02
382.522	0.02
382.881	0.02
383.241	0.02
383.6	0.02
383.959	0.02
384.319	0.02
384.678	0.02
385.037	0.02
385.396	0.02
385.755	0.02
386.114	0.02
386.473	0.02
386.832	0.01
387.191	0.02
387.55	0.01
387.909	0.01
388.268	0.01
388.627	0.01
388.985	0.01
389.344	0.01
389.703	0.01
390.061	0.02
390.42	0.02
390.778	0.02
391.137	0.02
391.495	0.02
391.854	0.02
392.212	0.02
392.57	0.02
392.929	0.02
393.287	0.02
393.645	0.01
394.003	0.01
394.362	0.01
394.72	0.01
395.078	0.01
395.436	0.01
395.794	0.01
396.152	0.01
396.51	0.01
396.867	0.01
397.225	0.01
397.583	0.01
397.941	0.01
398.298	0.01
398.656	0.02
399.014	0.02
399.371	0.02
399.729	0.02
400.086	0.02
400.444	0.02
400.801	0.02
401.159	0.02
401.516	0.02
401.873	0.02
402.23	0.02
402.588	0.02
402.945	0.02
403.302	0.02
403.659	0.02
404.016	0.02
404.373	0.02
404.73	0.03
405.087	0.03
405.444	0.03
405.801	0.04
406.158	0.07
406.514	0.11
406.871	0.14
407.228	0.17
407.584	0.19
407.941	0.2
408.298	0.2
408.654	0.2
409.011	0.2
409.367	0.2
409.723	0.2
410.08	0.17
410.436	0.14
410.792	0.11
411.149	0.08
411.505	0.07
411.861	0.06
412.217	0.06
412.573	0.06
412.929	0.05
413.285	0.05
413.641	0.05
413.997	0.05
414.353	0.05
414.709	0.04
415.065	0.05
415.42	0.05
415.776	0.05
416.132	0.05
416.487	0.05
416.843	0.05
417.199	0.05
417.554	0.05
417.91	0.06
418.265	0.06
418.62	0.06
418.976	0.06
419.331	0.06
419.686	0.06
420.042	0.06
420.397	0.07
420.752	0.07
421.107	0.07
421.462	0.07
421.817	0.07
422.172	0.07
422.527	0.08
422.882	0.08
423.237	0.08
423.592	0.08
423.946	0.08
424.301	0.09
424.656	0.09
425.01	0.09
425.365	0.09
425.72	0.09
426.074	0.09
426.429	0.1
426.783	0.1
427.137	0.1
427.492	0.1
427.846	0.1
428.2	0.1
428.555	0.1
428.909	0.11
429.263	0.11
429.617	0.11
429.971	0.11
430.325	0.12
430.679	0.12
431.033	0.12
431.387	0.13
431.741	0.13
432.095	0.13
432.449	0.14
432.802	0.14
433.156	0.14
433.51	0.15
433.863	0.15
434.217	0.16
434.571	0.16
434.924	0.16
435.278	0.17
435.631	0.17
435.984	0.18
436.338	0.19
436.691	0.21
437.044	0.27
437.397	0.38
437.751	0.51
438.104	0.64
438.457	0.72
438.81	0.78
439.163	0.81
439.516	0.84
439.869	0.86
440.222	0.86
440.575	0.85
440.927	0.81
441.28	0.71
441.633	0.58
441.986	0.48
442.338	0.41
442.691	0.36
443.043	0.34
443.396	0.32
443.748	0.32
444.101	0.32
444.453	0.33
444.805	0.34
445.158	0.35
445.51	0.36
445.862	0.37
446.214	0.38
446.567	0.4
446.919	0.41
447.271	0.42
447.623	0.43
447.975	0.44
448.327	0.46
448.679	0.47
449.03	0.48
449.382	0.5
449.734	0.51
450.086	0.52
450.437	0.54
450.789	0.55
451.141	0.56
451.492	0.57
451.844	0.58
452.195	0.58
452.547	0.59
452.898	0.6
453.249	0.6
453.601	0.6
453.952	0.6
454.303	0.6
454.654	0.6
455.005	0.6
455.357	0.59
455.708	0.59
456.059	0.58
456.41	0.57
456.76	0.56
457.111	0.55
457.462	0.53
457.813	0.52
458.164	0.51
458.515	0.5
458.865	0.49
459.216	0.47
459.566	0.46
459.917	0.45
460.267	0.44
460.618	0.42
460.968	0.41
461.319	0.4
461.669	0.39
462.019	0.38
462.37	0.37
462.72	0.36
463.07	0.35
463.42	0.34
463.77	0.34
464.12	0.33
464.47	0.32
464.82	0.32
465.17	0.31
465.52	0.31
465.87	0.31
466.22	0.3
466.569	0.3
466.919	0.3
467.269	0.29
467.618	0.29
467.968	0.29
468.318	0.28
468.667	0.28
469.017	0.28
469.366	0.27
469.715	0.27
470.065	0.27
470.414	0.27
470.763	0.26
471.112	0.26
471.462	0.26
471.811	0.26
472.16	0.25
472.509	0.25
472.858	0.25
473.207	0.25
473.556	0.25
473.905	0.25
474.253	0.24
474.602	0.24
474.951	0.24
475.3	0.24
475.648	0.24
475.997	0.24
476.345	0.24
476.694	0.24
477.042	0.24
477.391	0.24
477.739	0.24
478.088	0.24
478.436	0.24
478.784	0.25
479.132	0.25
479.481	0.25
479.829	0.25
480.177	0.25
480.525	0.25
480.873	0.26
481.221	0.26
481.569	0.26
481.917	0.26
482.265	0.27
482.612	0.28
482.96	0.28
483.308	0.29
483.656	0.29
484.003	0.3
484.351	0.31
484.698	0.32
485.046	0.33
485.393	0.34
485.741	0.36
486.088	0.38
486.435	0.39
486.783	0.41
487.13	0.44
487.477	0.46
487.824	0.49
488.171	0.52
488.518	0.55
488.866	0.58
489.212	0.61
489.559	0.63
489.906	0.66
490.253	0.68
490.6	0.7
490.947	0.72
491.294	0.73
491.64	0.74
491.987	0.75
492.333	0.76
492.68	0.76
493.027	0.77
493.373	0.77
493.719	0.78
494.066	0.78
494.412	0.79
494.759	0.8
495.105	0.81
495.451	0.82
495.797	0.83
496.143	0.84
496.489	0.86
496.835	0.87
497.181	0.89
497.527	0.9
497.873	0.92
498.219	0.94
498.565	0.96
498.911	0.98
499.257	1.01
499.602	1.03
499.948	1.06
500.294	1.08
500.639	1.11
500.985	1.14
501.33	1.17
501.676	1.2
502.021	1.23
502.366	1.27
502.712	1.3
503.057	1.34
503.402	1.38
503.747	1.42
504.092	1.46
504.438	1.5
504.783	1.54
505.128	1.59
505.473	1.64
505.817	1.69
506.162	1.75
506.507	1.8
506.852	1.85
507.197	1.91
507.541	1.97
507.886	2.03
508.231	2.1
508.575	2.16
508.92	2.23
509.264	2.29
509.609	2.36
509.953	2.43
510.297	2.51
510.642	2.58
510.986	2.66
511.33	2.73
511.674	2.81
512.019	2.89
512.363	2.97
512.707	3.05
513.051	3.13
513.395	3.21
513.739	3.29
514.083	3.37
514.426	3.46
514.77	3.54
515.114	3.62
515.458	3.71
515.801	3.79
516.145	3.87
516.488	3.95
516.832	4.03
517.175	4.11
517.519	4.2
517.862	4.28
518.206	4.35
518.549	4.43
518.892	4.5
519.235	4.57
519.579	4.64
519.922	4.71
520.265	4.78
520.608	4.84
520.951	4.9
521.294	4.96
521.637	5.02
521.98	5.07
522.323	5.12
522.665	5.17
523.008	5.21
523.351	5.25
523.693	5.29
524.036	5.32
524.379	5.36
524.721	5.39
525.064	5.41
525.406	5.43
525.748	5.45
526.091	5.46
526.433	5.48
526.775	5.48
527.118	5.49
527.46	5.49
527.802	5.49
528.144	5.48
528.486	5.47
528.828	5.46
529.17	5.45
529.512	5.43
529.854	5.41
530.195	5.39
530.537	5.36
530.879	5.33
531.221	5.3
531.562	5.26
531.904	5.22
532.245	5.19
532.587	5.15
532.928	5.1
533.27	5.06
533.611	5.01
533.953	4.96
534.294	4.91
534.635	4.87
534.976	4.82
535.317	4.77
535.659	4.72
536	4.67
536.341	4.62
536.682	4.56
537.023	4.51
537.363	4.46
537.704	4.41
538.045	4.36
538.386	4.3
538.727	4.26
539.067	4.21
539.408	4.16
539.748	4.12
540.089	4.08
540.429	4.05
540.77	4.01
541.11	3.98
541.451	3.96
541.791	3.95
542.131	3.94
542.471	3.95
542.812	3.98
543.152	4.03
543.492	4.1
543.832	4.17
544.172	4.24
544.512	4.31
544.852	4.37
545.192	4.43
545.531	4.47
545.871	4.51
546.211	4.52
546.551	4.52
546.89	4.49
547.23	4.48
547.57	4.5
547.909	4.54
548.248	4.55
548.588	4.54
548.927	4.51
549.267	4.45
549.606	4.39
549.945	4.31
550.284	4.23
550.623	4.14
550.963	4
551.302	3.81
551.641	3.6
551.98	3.41
552.319	3.24
552.657	3.1
552.996	2.97
553.335	2.86
553.674	2.75
554.013	2.64
554.351	2.55
554.69	2.46
555.028	2.38
555.367	2.3
555.705	2.23
556.044	2.16
556.382	2.09
556.721	2.03
557.059	1.97
557.397	1.91
557.735	1.86
558.074	1.8
558.412	1.75
558.75	1.7
559.088	1.66
559.426	1.61
559.764	1.57
560.102	1.53
560.439	1.5
560.777	1.46
561.115	1.43
561.453	1.4
561.79	1.36
562.128	1.33
562.466	1.31
562.803	1.28
563.141	1.25
563.478	1.23
563.816	1.2
564.153	1.18
564.49	1.16
564.827	1.13
565.165	1.11
565.502	1.09
565.839	1.07
566.176	1.05
566.513	1.03
566.85	1.01
567.187	0.99
567.524	0.97
567.861	0.95
568.198	0.93
568.534	0.91
568.871	0.89
569.208	0.87
569.544	0.86
569.881	0.84
570.218	0.82
570.554	0.81
570.891	0.79
571.227	0.78
571.563	0.76
571.9	0.75
572.236	0.74
572.572	0.72
572.908	0.71
573.244	0.7
573.581	0.68
573.917	0.67
574.253	0.65
574.588	0.64
574.924	0.63
575.26	0.61
575.596	0.6
575.932	0.59
576.268	0.58
576.603	0.57
576.939	0.56
577.274	0.55
577.61	0.54
577.946	0.54
578.281	0.54
578.616	0.55
578.952	0.56
579.287	0.57
579.622	0.57
579.958	0.58
580.293	0.59
580.628	0.6
580.963	0.62
581.298	0.63
581.633	0.64
581.968	0.65
582.303	0.64
582.638	0.63
582.973	0.63
583.307	0.63
583.642	0.63
583.977	0.63
584.311	0.62
584.646	0.62
584.98	0.61
585.315	0.61
585.649	0.62
585.984	0.62
586.318	0.62
586.652	0.62
586.987	0.63
587.321	0.63
587.655	0.63
587.989	0.62
588.323	0.62
588.657	0.62
588.991	0.63
589.325	0.63
589.659	0.63
589.993	0.63
590.327	0.63
590.661	0.62
590.994	0.61
591.328	0.6
591.662	0.59
591.995	0.58
592.329	0.56
592.662	0.53
592.996	0.5
593.329	0.48
593.662	0.46
593.996	0.45
594.329	0.45
594.662	0.45
594.995	0.45
595.328	0.46
595.661	0.46
595.994	0.46
596.327	0.46
596.66	0.45
596.993	0.45
597.326	0.44
597.659	0.43
597.992	0.41
598.324	0.39
598.657	0.36
598.99	0.34
599.322	0.33
599.655	0.31
599.987	0.3
600.32	0.29
600.652	0.29
600.984	0.29
601.317	0.29
601.649	0.3
601.981	0.3
602.313	0.31
602.645	0.31
602.977	0.31
603.309	0.31
603.641	0.3
603.973	0.3
604.305	0.29
604.637	0.28
604.969	0.26
605.3	0.25
605.632	0.24
605.964	0.23
606.295	0.22
606.627	0.21
606.958	0.2
607.29	0.2
607.621	0.2
607.952	0.2
608.284	0.2
608.615	0.2
608.946	0.2
609.277	0.2
609.609	0.21
609.94	0.22
610.271	0.23
610.602	0.24
610.933	0.26
611.263	0.29
611.594	0.33
611.925	0.39
612.256	0.49
612.587	0.66
612.917	0.87
613.248	1.11
613.578	1.34
613.909	1.53
614.239	1.7
614.57	1.84
614.9	1.95
615.23	2.03
615.561	2.08
615.891	2.08
616.221	2
616.551	1.85
616.881	1.68
617.211	1.5
617.541	1.35
617.871	1.21
618.201	1.09
618.531	0.98
618.861	0.89
619.191	0.8
619.52	0.72
619.85	0.65
620.18	0.58
620.509	0.53
620.839	0.48
621.168	0.44
621.498	0.41
621.827	0.39
622.157	0.37
622.486	0.36
622.815	0.35
623.144	0.34
623.473	0.34
623.803	0.34
624.132	0.34
624.461	0.34
624.79	0.35
625.119	0.35
625.447	0.35
625.776	0.35
626.105	0.35
626.434	0.35
626.762	0.35
627.091	0.35
627.42	0.35
627.748	0.35
628.077	0.35
628.405	0.35
628.734	0.35
629.062	0.35
629.39	0.34
629.719	0.34
630.047	0.33
630.375	0.33
630.703	0.32
631.031	0.32
631.359	0.32
631.687	0.31
632.015	0.32
632.343	0.32
632.671	0.34
632.999	0.35
633.326	0.36
633.654	0.37
633.982	0.37
634.309	0.37
634.637	0.36
634.964	0.36
635.292	0.34
635.619	0.32
635.947	0.3
636.274	0.27
636.601	0.24
636.928	0.21
637.256	0.18
637.583	0.16
637.91	0.15
638.237	0.13
638.564	0.12
638.891	0.12
639.218	0.11
639.544	0.11
639.871	0.11
640.198	0.1
640.525	0.1
640.851	0.1
641.178	0.1
641.504	0.09
641.831	0.09
642.157	0.09
642.484	0.09
642.81	0.09
643.137	0.09
643.463	0.09
643.789	0.09
644.115	0.09
644.441	0.09
644.767	0.09
645.093	0.09
645.419	0.09
645.745	0.09
646.071	0.09
646.397	0.09
646.723	0.09
647.049	0.09
647.374	0.09
647.7	0.09
648.026	0.09
648.351	0.09
648.677	0.09
649.002	0.09
649.328	0.1
649.653	0.1
649.978	0.1
650.303	0.1
650.629	0.1
650.954	0.1
651.279	0.1
651.604	0.1
651.929	0.11
652.254	0.12
652.579	0.12
652.904	0.13
653.229	0.14
653.554	0.14
653.878	0.15
654.203	0.15
654.528	0.16
654.852	0.16
655.177	0.16
655.501	0.15
655.826	0.15
656.15	0.14
656.474	0.14
656.799	0.13
657.123	0.13
657.447	0.12
657.771	0.12
658.096	0.12
658.42	0.11
658.744	0.11
659.068	0.11
659.392	0.11
659.715	0.11
660.039	0.11
660.363	0.11
660.687	0.1
661.01	0.1
661.334	0.1
661.658	0.1
661.981	0.1
662.305	0.09
662.628	0.09
662.952	0.09
663.275	0.09
663.598	0.09
663.921	0.09
664.245	0.09
664.568	0.1
664.891	0.1
665.214	0.1
665.537	0.11
665.86	0.11
666.183	0.11
666.506	0.11
666.828	0.11
667.151	0.11
667.474	0.11
667.797	0.1
668.119	0.1
668.442	0.1
668.764	0.09
669.087	0.09
669.409	0.09
669.732	0.09
670.054	0.09
670.376	0.09
670.698	0.09
671.021	0.09
671.343	0.08
671.665	0.08
671.987	0.08
672.309	0.08
672.631	0.08
672.953	0.08
673.275	0.08
673.596	0.07
673.918	0.07
674.24	0.07
674.561	0.07
674.883	0.07
675.205	0.07
675.526	0.07
675.848	0.07
676.169	0.07
676.49	0.07
676.812	0.07
677.133	0.07
677.454	0.07
677.775	0.07
678.096	0.07
678.417	0.07
678.739	0.06
679.059	0.06
679.38	0.06
679.701	0.06
680.022	0.06
680.343	0.06
680.664	0.06
680.984	0.07
681.305	0.07
681.625	0.07
681.946	0.07
682.266	0.07
682.587	0.07
682.907	0.07
683.228	0.07
683.548	0.07
683.868	0.06
684.188	0.06
684.508	0.06
684.829	0.06
685.149	0.06
685.469	0.06
685.789	0.06
686.108	0.06
686.428	0.06
686.748	0.06
687.068	0.05
687.387	0.06
687.707	0.06
688.027	0.06
688.346	0.06
688.666	0.06
688.985	0.07
689.305	0.07
689.624	0.08
689.943	0.08
690.263	0.09
690.582	0.09
690.901	0.1
691.22	0.1
691.539	0.1
691.858	0.1
692.177	0.09
692.496	0.09
692.815	0.08
693.134	0.08
693.452	0.07
693.771	0.07
694.09	0.06
694.408	0.06
694.727	0.06
695.045	0.06
695.364	0.06
695.682	0.06
696.001	0.06
696.319	0.07
696.637	0.07
696.956	0.07
697.274	0.07
697.592	0.07
697.91	0.07
698.228	0.07
698.546	0.07
698.864	0.06
699.182	0.05
699.499	0.05
699.817	0.05
700.135	0.05
700.453	0.04
700.77	0.04
701.088	0.04
701.405	0.04
701.723	0.04
702.04	0.04
702.358	0.04
702.675	0.04
702.992	0.04
703.31	0.04
703.627	0.04
703.944	0.04
704.261	0.04
704.578	0.04
704.895	0.04
705.212	0.04
705.529	0.04
705.846	0.04
706.162	0.04
706.479	0.04
706.796	0.05
707.112	0.05
707.429	0.06
707.746	0.07
708.062	0.08
708.378	0.09
708.695	0.11
709.011	0.13
709.327	0.14
709.644	0.15
709.96	0.16
710.276	0.18
710.592	0.19
710.908	0.2
711.224	0.21
711.54	0.21
711.856	0.2
712.172	0.19
712.488	0.18
712.803	0.17
713.119	0.17
713.435	0.17
713.75	0.16
714.066	0.16
714.381	0.15
714.697	0.15
715.012	0.15
715.327	0.15
715.643	0.15
715.958	0.15
716.273	0.15
716.588	0.14
716.903	0.13
717.218	0.11
717.533	0.1
717.848	0.09
718.163	0.08
718.478	0.07
718.793	0.06
719.108	0.05
719.422	0.05
719.737	0.05
720.052	0.05
720.366	0.05
720.681	0.05
720.995	0.05
721.309	0.05
721.624	0.05
721.938	0.04
722.252	0.04
722.566	0.04
722.881	0.04
723.195	0.03
723.509	0.04
723.823	0.03
724.137	0.03
724.45	0.03
724.764	0.03
725.078	0.03
725.392	0.03
725.706	0.04
726.019	0.04
726.333	0.04
726.646	0.04
726.96	0.04
727.273	0.04
727.587	0.04
727.9	0.04
728.213	0.04
728.526	0.04
728.84	0.04
729.153	0.04
729.466	0.04
729.779	0.04
730.092	0.03
730.405	0.04
730.718	0.04
731.03	0.04
731.343	0.04
731.656	0.03
731.969	0.04
732.281	0.03
732.594	0.04
732.906	0.04
733.219	0.04
733.531	0.04
733.844	0.04
734.156	0.04
734.468	0.04
734.78	0.04
735.093	0.04
735.405	0.04
735.717	0.03
736.029	0.03
736.341	0.03
736.653	0.03
736.965	0.03
737.276	0.03
737.588	0.03
737.9	0.03
738.211	0.03
738.523	0.03
738.835	0.03
739.146	0.03
739.458	0.04
739.769	0.04
740.08	0.04
740.392	0.04
740.703	0.03
741.014	0.03
741.325	0.03
741.636	0.03
741.947	0.03
742.258	0.03
742.569	0.03
742.88	0.03
743.191	0.03
743.502	0.03
743.813	0.03
744.123	0.03
744.434	0.03
744.745	0.04
745.055	0.03
745.366	0.04
745.676	0.04
745.987	0.04
746.297	0.04
746.607	0.04
746.917	0.04
747.228	0.04
747.538	0.04
747.848	0.04
748.158	0.04
748.468	0.03
748.778	0.03
749.088	0.03
749.397	0.03
749.707	0.03
750.017	0.03
750.327	0.03
750.636	0.02
750.946	0.03
751.255	0.03
751.565	0.03
751.874	0.03
752.184	0.03
752.493	0.03
752.802	0.02
753.111	0.02
753.421	0.02
753.73	0.02
754.039	0.02
754.348	0.02
754.657	0.02
754.966	0.02
755.274	0.02
755.583	0.02
755.892	0.02
756.201	0.03
756.509	0.04
756.818	0.04
757.127	0.04
757.435	0.04
757.743	0.05
758.052	0.05
758.36	0.05
758.668	0.05
758.977	0.05
759.285	0.05
759.593	0.05
759.901	0.04
760.209	0.05
760.517	0.05
760.825	0.06
761.133	0.05
761.441	0.05
761.749	0.05
762.056	0.05
762.364	0.05
762.672	0.05
762.979	0.05
763.287	0.06
763.594	0.05
763.902	0.05
764.209	0.05
764.516	0.06
764.823	0.06
765.131	0.06
765.438	0.06
765.745	0.06
766.052	0.06
766.359	0.06
766.666	0.06
766.973	0.05
767.28	0.05
767.587	0.06
767.893	0.05
768.2	0.04
768.507	0.04
768.813	0.04
769.12	0.03
769.426	0.03
769.733	0.03
770.039	0.03
770.345	0.04
770.652	0.04
770.958	0.03
771.264	0.04
771.57	0.04
771.876	0.04
772.182	0.04
772.488	0.04
772.794	0.04
773.1	0.03
773.406	0.04
773.712	0.03
774.017	0.04
774.323	0.04
774.628	0.04
774.934	0.03
775.24	0.02
775.545	0.02
775.85	0.03
776.156	0.04
776.461	0.05
776.766	0.05
777.071	0.06
777.377	0.06
777.682	0.06
777.987	0.07
778.292	0.06
778.597	0.07
778.901	0.07
779.206	0.07
779.511	0.07
779.816	0.06
780.12	0.07
780.425	0.07
780.73	0.07
781.034	0.06
781.339	0.07
781.643	0.08
781.947	0.08
782.252	0.08
782.556	0.06
782.86	0.07
783.164	0.06
783.468	0.06
783.772	0.07
784.076	0.06
784.38	0.07
784.684	0.06
784.988	0.05
785.292	0.06
785.595	0.07
785.899	0.07
786.203	0.07
786.506	0.06
786.81	0.06
787.113	0.06
787.417	0.07
787.72	0.07
788.023	0.07
788.327	0.07
788.63	0.07
788.933	0.08
789.236	0.1
789.539	0.1
789.842	0.11
790.145	0.11
790.448	0.11
790.751	0.11
791.054	0.1
791.356	0.1
791.659	0.1
791.962	0.1
792.264	0.09
792.567	0.07
792.869	0.06
793.172	0.07
793.474	0.06
793.776	0.06
794.078	0.05
794.381	0.07
794.683	0.06
794.985	0.06
795.287	0.06
795.589	0.08
795.891	0.09
796.193	0.1
796.495	0.08
796.796	0.09
797.098	0.09
797.4	0.09
797.701	0.08
798.003	0.08
798.304	0.08
798.606	0.09
798.907	0.08
799.209	0.07
799.51	0.06
799.811	0.06
800.112	0.05
800.414	0.04
800.715	0.04
801.016	0.04
801.317	0.04
801.618	0.04
801.919	0.02
802.219	0.03
802.52	0.03
802.821	0.03
803.122	0.04
803.422	0.05
803.723	0.07
804.023	0.07
804.324	0.07
804.624	0.07
804.924	0.09
805.225	0.09
805.525	0.09
805.825	0.1
806.125	0.11
806.425	0.11
806.725	0.11
807.025	0.09
807.325	0.11
807.625	0.11
807.925	0.12
808.225	0.11
808.525	0.1
808.824	0.11
809.124	0.1
809.423	0.11
809.723	0.11
810.022	0.12
810.322	0.14
810.621	0.14
810.92	0.13
811.22	0.11
811.519	0.12
811.818	0.1
812.117	0.11
812.416	0.1
812.715	0.11
813.014	0.09
813.313	0.07
813.612	0.08
813.91	0.1
814.209	0.12
814.508	0.14
814.806	0.12
815.105	0.12
815.403	0.12
815.702	0.14
816	0.14
816.298	0.15
816.597	0.18
816.895	0.18
817.193	0.13
817.491	0.13
817.789	0.11
818.087	0.15
818.385	0.17
818.683	0.13
818.981	0.13
819.279	0.1
819.577	0.13
819.874	0.11
820.172	0.11
820.469	0.12
820.767	0.09
821.064	0.1
821.362	0.08
821.659	0.11
821.957	0.14
822.254	0.16
822.551	0.15
822.848	0.15
823.145	0.14
823.442	0.14
823.739	0.16
824.036	0.18
824.333	0.17
824.63	0.17
824.927	0.13
825.223	0.14
825.52	0.13
825.817	0.15
826.113	0.12
826.41	0.1
826.706	0.11
827.003	0.11
827.299	0.13
827.595	0.17
827.892	0.17
828.188	0.18
828.484	0.18
828.78	0.17
829.076	0.16
829.372	0.17
829.668	0.23
829.964	0.22
830.26	0.23
830.555	0.24
830.851	0.25
831.147	0.25
831.442	0.29
831.738	0.29
832.033	0.3
832.329	0.31
832.624	0.33
832.919	0.3
833.215	0.33
833.51	0.34
833.805	0.32
834.1	0.33
834.395	0.32
834.69	0.31
834.985	0.34
835.28	0.31
835.575	0.3
835.87	0.28
836.164	0.25
836.459	0.23
836.754	0.19
837.048	0.18
837.343	0.15
837.637	0.16
837.932	0.13
838.226	0.11
838.52	0.17
838.814	0.18
839.109	0.14
839.403	0.16
839.697	0.15
839.991	0.16
840.285	0.17
840.579	0.16
840.873	0.16
841.166	0.15
841.46	0.15
841.754	0.13
842.047	0.12
842.341	0.15
842.635	0.19
842.928	0.22
843.222	0.21
843.515	0.21
843.808	0.28
844.101	0.27
844.395	0.28
844.688	0.26
844.981	0.26
845.274	0.29
845.567	0.36
845.86	0.34
846.153	0.35
846.446	0.38
846.738	0.37
847.031	0.32
847.324	0.33
847.616	0.32
847.909	0.38
848.201	0.4
848.494	0.39
848.786	0.29
849.079	0.31
849.371	0.3
849.663	0.28
849.955	0.27
850.247	0.27
850.539	0.29
850.831	0.34
851.123	0.27
851.415	0.2
851.707	0.29
851.999	0.34
852.291	0.34
852.582	0.35
852.874	0.41
853.166	0.43
853.457	0.41
853.749	0.38
854.04	0.4
854.331	0.41
854.623	0.45
854.914	0.43
855.205	0.45
855.496	0.44
855.787	0.39
856.078	0.41
856.369	0.56
856.66	0.6
856.951	0.69
857.242	0.72
857.533	0.75
857.823	0.82
858.114	0.8
858.404	0.82
858.695	0.79
858.985	0.8
859.276	0.65
859.566	0.55
859.857	0.58
860.147	0.46
860.437	0.46
860.727	0.45
861.017	0.32
861.307	0.36
861.597	0.34
861.887	0.37
862.177	0.51
862.467	0.81
862.757	0.79
863.046	0.79
863.336	0.92
863.626	0.79
863.915	0.88
864.205	0.99
864.494	0.95
864.783	0.86
865.073	0.95
865.362	0.81
865.651	0.51
865.94	0.64
866.229	0.56
866.518	0.61
866.807	0.71
867.096	0.67
867.385	0.73
867.674	0.75
867.963	0.88
868.252	0.91
868.54	1.09
868.829	1.37
869.117	1.35
869.406	1.51
869.694	1.59
869.983	1.7
870.271	1.76
870.559	1.67
