Data from AbsoluteIrradiance__6__17-13-58-004.txt Node

Date: Fri Jul 22 17:13:58 EDT 2022
User: enochs
Spectrometer: FLMS17410
Trigger mode: 0
Integration Time (sec): 1.545400E-1
Scans to average: 5
Electric dark correction enabled: true
Nonlinearity correction enabled: true
Boxcar width: 5
XAxis mode: Wavelengths
Number of Pixels in Spectrum: 2048
>>>>>Begin Spectral Data<<<<<
179.501	-0
179.881	-0
180.261	0
180.64	0
181.02	0
181.399	0
181.779	0
182.158	0
182.537	0
182.917	0
183.296	0
183.675	0
184.055	0
184.434	0
184.813	-0
185.192	-0
185.571	-0
185.95	-0
186.329	-0
186.708	-0
187.087	-0
187.466	-0
187.845	0
188.224	0
188.603	0
188.982	0
189.361	0
189.739	0
190.118	0
190.497	0
190.875	0
191.254	0
191.632	0
192.011	0
192.39	0
192.768	0
193.146	0
193.525	0
193.903	0
194.282	0
194.66	0
195.038	0
195.416	0
195.794	0
196.173	0
196.551	0
196.929	0
197.307	0
197.685	0
198.063	0
198.441	0
198.819	0
199.197	0
199.575	0
199.952	0
200.33	0.8
200.708	0.95
201.086	1.25
201.463	1.59
201.841	1.62
202.218	1.66
202.596	1.22
202.974	1.41
203.351	1.17
203.729	1.01
204.106	1.22
204.483	1.16
204.861	1.21
205.238	1
205.615	0.87
205.993	0.91
206.37	0.97
206.747	1.15
207.124	1.03
207.501	1.03
207.878	1.06
208.255	1.08
208.632	1.13
209.009	0.85
209.386	0.9
209.763	0.8
210.14	0.56
210.517	0.51
210.894	0.51
211.271	0.42
211.647	0.39
212.024	0.34
212.401	0.26
212.777	0.2
213.154	0.26
213.531	0.25
213.907	0.31
214.284	0.35
214.66	0.28
215.036	0.27
215.413	0.27
215.789	0.31
216.166	0.37
216.542	0.41
216.918	0.37
217.294	0.45
217.67	0.43
218.047	0.41
218.423	0.35
218.799	0.32
219.175	0.29
219.551	0.32
219.927	0.28
220.303	0.24
220.679	0.19
221.054	0.19
221.43	0.18
221.806	0.19
222.182	0.19
222.558	0.21
222.933	0.29
223.309	0.31
223.685	0.29
224.06	0.3
224.436	0.28
224.811	0.3
225.187	0.26
225.562	0.25
225.938	0.24
226.313	0.21
226.688	0.23
227.064	0.2
227.439	0.22
227.814	0.24
228.189	0.23
228.564	0.22
228.94	0.23
229.315	0.21
229.69	0.19
230.065	0.17
230.44	0.17
230.815	0.15
231.19	0.16
231.564	0.14
231.939	0.13
232.314	0.13
232.689	0.13
233.064	0.13
233.438	0.15
233.813	0.17
234.188	0.17
234.562	0.18
234.937	0.18
235.311	0.16
235.686	0.16
236.06	0.15
236.435	0.16
236.809	0.16
237.183	0.13
237.558	0.13
237.932	0.13
238.306	0.14
238.68	0.13
239.055	0.14
239.429	0.12
239.803	0.12
240.177	0.12
240.551	0.11
240.925	0.09
241.299	0.12
241.673	0.1
242.047	0.09
242.42	0.08
242.794	0.08
243.168	0.06
243.542	0.09
243.915	0.1
244.289	0.08
244.663	0.09
245.036	0.1
245.41	0.07
245.783	0.06
246.157	0.06
246.53	0.07
246.904	0.06
247.277	0.06
247.651	0.06
248.024	0.05
248.397	0.05
248.77	0.06
249.144	0.05
249.517	0.06
249.89	0.08
250.263	0.09
250.636	0.09
251.009	0.09
251.382	0.08
251.755	0.08
252.128	0.07
252.501	0.08
252.874	0.07
253.246	0.07
253.619	0.06
253.992	0.06
254.365	0.05
254.737	0.04
255.11	0.05
255.483	0.05
255.855	0.05
256.228	0.05
256.6	0.04
256.973	0.03
257.345	0.03
257.717	0.02
258.09	0.01
258.462	0.02
258.834	0.02
259.206	0.02
259.579	0.02
259.951	0.02
260.323	0.02
260.695	0.03
261.067	0.03
261.439	0.03
261.811	0.04
262.183	0.04
262.555	0.04
262.927	0.03
263.299	0.03
263.67	0.03
264.042	0.03
264.414	0.02
264.786	0.02
265.157	0.02
265.529	0.02
265.9	0.02
266.272	0.01
266.643	0.02
267.015	0.02
267.386	0.02
267.758	0.02
268.129	0.02
268.5	0.02
268.872	0.03
269.243	0.02
269.614	0.03
269.985	0.03
270.357	0.04
270.728	0.04
271.099	0.04
271.47	0.03
271.841	0.04
272.212	0.04
272.583	0.03
272.953	0.03
273.324	0.04
273.695	0.04
274.066	0.04
274.437	0.04
274.807	0.03
275.178	0.03
275.549	0.03
275.919	0.02
276.29	0.03
276.66	0.03
277.031	0.03
277.401	0.03
277.772	0.02
278.142	0.02
278.512	0.02
278.883	0.03
279.253	0.03
279.623	0.03
279.993	0.03
280.364	0.03
280.734	0.03
281.104	0.03
281.474	0.03
281.844	0.03
282.214	0.03
282.584	0.03
282.954	0.03
283.323	0.03
283.693	0.02
284.063	0.02
284.433	0.03
284.802	0.02
285.172	0.02
285.542	0.02
285.911	0.02
286.281	0.02
286.65	0.02
287.02	0.02
287.389	0.03
287.759	0.02
288.128	0.02
288.498	0.02
288.867	0.02
289.236	0.02
289.605	0.02
289.975	0.02
290.344	0.02
290.713	0.02
291.082	0.01
291.451	0.01
291.82	0.01
292.189	0.02
292.558	0.02
292.927	0.02
293.296	0.02
293.664	0.02
294.033	0.02
294.402	0.02
294.771	0.02
295.139	0.03
295.508	0.02
295.877	0.03
296.245	0.02
296.614	0.02
296.982	0.02
297.351	0.02
297.719	0.03
298.087	0.03
298.456	0.03
298.824	0.03
299.192	0.02
299.561	0.02
299.929	0.02
300.297	0.02
300.665	0.02
301.033	0.02
301.401	0.03
301.769	0.03
302.137	0.02
302.505	0.02
302.873	0.02
303.241	0.02
303.609	0.02
303.976	0.03
304.344	0.02
304.712	0.02
305.079	0.02
305.447	0.02
305.815	0.02
306.182	0.03
306.55	0.02
306.917	0.02
307.285	0.02
307.652	0.02
308.019	0.02
308.387	0.02
308.754	0.02
309.121	0.02
309.489	0.01
309.856	0.01
310.223	0.01
310.59	0.01
310.957	0.01
311.324	0.01
311.691	0.01
312.058	0.01
312.425	0.01
312.792	0.01
313.159	0.01
313.525	0.01
313.892	0.01
314.259	0.01
314.626	0.01
314.992	0.01
315.359	0.02
315.725	0.01
316.092	0.01
316.459	0.01
316.825	0.01
317.191	0.01
317.558	0.01
317.924	0.02
318.29	0.01
318.657	0.01
319.023	0.01
319.389	0.01
319.755	0.02
320.121	0.02
320.488	0.02
320.854	0.02
321.22	0.02
321.586	0.02
321.952	0.01
322.317	0.02
322.683	0.01
323.049	0.01
323.415	0.01
323.781	0.01
324.146	0.01
324.512	0.01
324.878	0.01
325.243	0.01
325.609	0.01
325.974	0.01
326.34	0.01
326.705	0.01
327.071	0.01
327.436	0.02
327.801	0.02
328.167	0.02
328.532	0.01
328.897	0.01
329.262	0.01
329.627	0.01
329.992	0.01
330.357	0.01
330.722	0.01
331.087	0.01
331.452	0.01
331.817	0.01
332.182	0.01
332.547	0.01
332.912	0.01
333.277	0.01
333.641	0.01
334.006	0.01
334.371	0.01
334.735	0.01
335.1	0.01
335.464	0.01
335.829	0.01
336.193	0.01
336.558	0.01
336.922	0.01
337.286	0.01
337.651	0.01
338.015	0.01
338.379	0.01
338.743	0.01
339.107	0.01
339.471	0.01
339.836	0.01
340.2	0.01
340.564	0.01
340.927	0.01
341.291	0.01
341.655	0.01
342.019	0.01
342.383	0.01
342.747	0.01
343.11	0.01
343.474	0.01
343.838	0.01
344.201	0.01
344.565	0.01
344.928	0.01
345.292	0.01
345.655	0.01
346.019	0.01
346.382	0.01
346.745	0.01
347.109	0.01
347.472	0.01
347.835	0.01
348.198	0.01
348.561	0.01
348.925	0.01
349.288	0.01
349.651	0.01
350.014	0.01
350.377	0.01
350.739	0.01
351.102	0.01
351.465	0.02
351.828	0.01
352.191	0.01
352.553	0.02
352.916	0.02
353.279	0.02
353.641	0.01
354.004	0.01
354.366	0.01
354.729	0.01
355.091	0.01
355.454	0.01
355.816	0.01
356.178	0.01
356.541	0.01
356.903	0.01
357.265	0.01
357.627	0.02
357.989	0.01
358.351	0.01
358.714	0.01
359.076	0.01
359.437	0.01
359.799	0.01
360.161	0.01
360.523	0.01
360.885	0.01
361.247	0.01
361.608	0.01
361.97	0.01
362.332	0.01
362.693	0.01
363.055	0.01
363.417	0.01
363.778	0.01
364.14	0.01
364.501	0.01
364.862	0.01
365.224	0.01
365.585	0.01
365.946	0.01
366.307	0.01
366.669	0.01
367.03	0.01
367.391	0.01
367.752	0.01
368.113	0.01
368.474	0.01
368.835	0.01
369.196	0.01
369.557	0.01
369.918	0.01
370.278	0.01
370.639	0.01
371	0.01
371.361	0.01
371.721	0.01
372.082	0.01
372.442	0.01
372.803	0.01
373.163	0.01
373.524	0.01
373.884	0.01
374.245	0.01
374.605	0.01
374.965	0.01
375.325	0.01
375.686	0.01
376.046	0.01
376.406	0.01
376.766	0.01
377.126	0.01
377.486	0.01
377.846	0.01
378.206	0.01
378.566	0.01
378.926	0.01
379.285	0.01
379.645	0.01
380.005	0.01
380.365	0.02
380.724	0.01
381.084	0.01
381.443	0.01
381.803	0.01
382.163	0.01
382.522	0.01
382.881	0.01
383.241	0.01
383.6	0.01
383.959	0.01
384.319	0.01
384.678	0.01
385.037	0.01
385.396	0.01
385.755	0.01
386.114	0.01
386.473	0.01
386.832	0.01
387.191	0.01
387.55	0.01
387.909	0.01
388.268	0.01
388.627	0.01
388.985	0.01
389.344	0.01
389.703	0.01
390.061	0.01
390.42	0.01
390.778	0.01
391.137	0.01
391.495	0.01
391.854	0.01
392.212	0.01
392.57	0.01
392.929	0
393.287	0.01
393.645	0
394.003	0
394.362	0
394.72	0
395.078	0
395.436	0.01
395.794	0.01
396.152	0.01
396.51	0.01
396.867	0.01
397.225	0.01
397.583	0.01
397.941	0.01
398.298	0.01
398.656	0.01
399.014	0.01
399.371	0.01
399.729	0.01
400.086	0.01
400.444	0.01
400.801	0.01
401.159	0.01
401.516	0.01
401.873	0.01
402.23	0.01
402.588	0.01
402.945	0.01
403.302	0.01
403.659	0.01
404.016	0.01
404.373	0.01
404.73	0.01
405.087	0.02
405.444	0.02
405.801	0.03
406.158	0.06
406.514	0.09
406.871	0.13
407.228	0.15
407.584	0.17
407.941	0.18
408.298	0.18
408.654	0.19
409.011	0.19
409.367	0.19
409.723	0.18
410.08	0.16
410.436	0.12
410.792	0.09
411.149	0.07
411.505	0.06
411.861	0.05
412.217	0.04
412.573	0.04
412.929	0.04
413.285	0.04
413.641	0.04
413.997	0.04
414.353	0.03
414.709	0.04
415.065	0.04
415.42	0.04
415.776	0.04
416.132	0.04
416.487	0.04
416.843	0.04
417.199	0.04
417.554	0.04
417.91	0.04
418.265	0.05
418.62	0.05
418.976	0.05
419.331	0.05
419.686	0.05
420.042	0.05
420.397	0.05
420.752	0.05
421.107	0.05
421.462	0.06
421.817	0.06
422.172	0.06
422.527	0.06
422.882	0.06
423.237	0.06
423.592	0.06
423.946	0.07
424.301	0.07
424.656	0.07
425.01	0.07
425.365	0.08
425.72	0.08
426.074	0.08
426.429	0.08
426.783	0.09
427.137	0.09
427.492	0.09
427.846	0.09
428.2	0.09
428.555	0.09
428.909	0.1
429.263	0.1
429.617	0.1
429.971	0.1
430.325	0.1
430.679	0.1
431.033	0.11
431.387	0.11
431.741	0.11
432.095	0.11
432.449	0.12
432.802	0.12
433.156	0.12
433.51	0.13
433.863	0.13
434.217	0.13
434.571	0.13
434.924	0.14
435.278	0.14
435.631	0.15
435.984	0.15
436.338	0.16
436.691	0.18
437.044	0.24
437.397	0.35
437.751	0.48
438.104	0.59
438.457	0.67
438.81	0.73
439.163	0.77
439.516	0.79
439.869	0.8
440.222	0.81
440.575	0.8
440.927	0.75
441.28	0.66
441.633	0.54
441.986	0.44
442.338	0.37
442.691	0.33
443.043	0.3
443.396	0.29
443.748	0.29
444.101	0.29
444.453	0.29
444.805	0.3
445.158	0.31
445.51	0.32
445.862	0.33
446.214	0.34
446.567	0.35
446.919	0.36
447.271	0.37
447.623	0.38
447.975	0.39
448.327	0.4
448.679	0.42
449.03	0.43
449.382	0.44
449.734	0.45
450.086	0.46
450.437	0.47
450.789	0.48
451.141	0.5
451.492	0.51
451.844	0.51
452.195	0.52
452.547	0.52
452.898	0.53
453.249	0.53
453.601	0.53
453.952	0.53
454.303	0.53
454.654	0.53
455.005	0.53
455.357	0.52
455.708	0.52
456.059	0.51
456.41	0.5
456.76	0.49
457.111	0.48
457.462	0.47
457.813	0.46
458.164	0.45
458.515	0.44
458.865	0.42
459.216	0.41
459.566	0.4
459.917	0.39
460.267	0.37
460.618	0.36
460.968	0.35
461.319	0.34
461.669	0.33
462.019	0.32
462.37	0.31
462.72	0.3
463.07	0.3
463.42	0.29
463.77	0.28
464.12	0.28
464.47	0.27
464.82	0.27
465.17	0.26
465.52	0.26
465.87	0.25
466.22	0.25
466.569	0.25
466.919	0.24
467.269	0.24
467.618	0.24
467.968	0.23
468.318	0.23
468.667	0.23
469.017	0.22
469.366	0.22
469.715	0.22
470.065	0.21
470.414	0.21
470.763	0.2
471.112	0.2
471.462	0.2
471.811	0.19
472.16	0.19
472.509	0.19
472.858	0.19
473.207	0.18
473.556	0.18
473.905	0.18
474.253	0.18
474.602	0.18
474.951	0.17
475.3	0.17
475.648	0.17
475.997	0.17
476.345	0.17
476.694	0.17
477.042	0.16
477.391	0.16
477.739	0.16
478.088	0.16
478.436	0.16
478.784	0.16
479.132	0.16
479.481	0.15
479.829	0.15
480.177	0.15
480.525	0.15
480.873	0.15
481.221	0.15
481.569	0.15
481.917	0.15
482.265	0.15
482.612	0.15
482.96	0.15
483.308	0.15
483.656	0.15
484.003	0.15
484.351	0.16
484.698	0.16
485.046	0.17
485.393	0.17
485.741	0.18
486.088	0.19
486.435	0.2
486.783	0.22
487.13	0.23
487.477	0.25
487.824	0.26
488.171	0.28
488.518	0.3
488.866	0.32
489.212	0.34
489.559	0.36
489.906	0.37
490.253	0.38
490.6	0.39
490.947	0.39
491.294	0.39
491.64	0.39
491.987	0.39
492.333	0.38
492.68	0.37
493.027	0.36
493.373	0.35
493.719	0.34
494.066	0.33
494.412	0.32
494.759	0.31
495.105	0.3
495.451	0.29
495.797	0.28
496.143	0.28
496.489	0.27
496.835	0.26
497.181	0.25
497.527	0.24
497.873	0.23
498.219	0.23
498.565	0.22
498.911	0.21
499.257	0.2
499.602	0.2
499.948	0.19
500.294	0.18
500.639	0.18
500.985	0.17
501.33	0.16
501.676	0.16
502.021	0.15
502.366	0.15
502.712	0.14
503.057	0.13
503.402	0.13
503.747	0.12
504.092	0.12
504.438	0.11
504.783	0.1
505.128	0.1
505.473	0.1
505.817	0.09
506.162	0.09
506.507	0.08
506.852	0.08
507.197	0.08
507.541	0.08
507.886	0.07
508.231	0.07
508.575	0.07
508.92	0.07
509.264	0.06
509.609	0.06
509.953	0.06
510.297	0.06
510.642	0.06
510.986	0.06
511.33	0.06
511.674	0.06
512.019	0.06
512.363	0.06
512.707	0.06
513.051	0.06
513.395	0.06
513.739	0.06
514.083	0.06
514.426	0.06
514.77	0.06
515.114	0.06
515.458	0.06
515.801	0.06
516.145	0.06
516.488	0.06
516.832	0.05
517.175	0.05
517.519	0.05
517.862	0.05
518.206	0.05
518.549	0.05
518.892	0.05
519.235	0.05
519.579	0.05
519.922	0.05
520.265	0.05
520.608	0.05
520.951	0.05
521.294	0.05
521.637	0.05
521.98	0.05
522.323	0.05
522.665	0.05
523.008	0.05
523.351	0.05
523.693	0.05
524.036	0.05
524.379	0.05
524.721	0.05
525.064	0.05
525.406	0.05
525.748	0.05
526.091	0.05
526.433	0.05
526.775	0.05
527.118	0.05
527.46	0.05
527.802	0.05
528.144	0.05
528.486	0.05
528.828	0.05
529.17	0.05
529.512	0.05
529.854	0.05
530.195	0.05
530.537	0.05
530.879	0.05
531.221	0.05
531.562	0.06
531.904	0.06
532.245	0.06
532.587	0.06
532.928	0.06
533.27	0.06
533.611	0.06
533.953	0.06
534.294	0.06
534.635	0.06
534.976	0.06
535.317	0.07
535.659	0.07
536	0.07
536.341	0.08
536.682	0.08
537.023	0.08
537.363	0.08
537.704	0.09
538.045	0.09
538.386	0.1
538.727	0.1
539.067	0.11
539.408	0.12
539.748	0.13
540.089	0.15
540.429	0.17
540.77	0.19
541.11	0.21
541.451	0.24
541.791	0.28
542.131	0.33
542.471	0.39
542.812	0.47
543.152	0.57
543.492	0.69
543.832	0.81
544.172	0.94
544.512	1.05
544.852	1.16
545.192	1.26
545.531	1.36
545.871	1.44
546.211	1.5
546.551	1.54
546.89	1.56
547.23	1.6
547.57	1.67
547.909	1.75
548.248	1.81
548.588	1.84
548.927	1.85
549.267	1.84
549.606	1.82
549.945	1.79
550.284	1.75
550.623	1.7
550.963	1.6
551.302	1.47
551.641	1.3
551.98	1.16
552.319	1.03
552.657	0.93
552.996	0.85
553.335	0.77
553.674	0.7
554.013	0.64
554.351	0.59
554.69	0.54
555.028	0.49
555.367	0.45
555.705	0.42
556.044	0.38
556.382	0.35
556.721	0.32
557.059	0.29
557.397	0.27
557.735	0.25
558.074	0.23
558.412	0.21
558.75	0.19
559.088	0.17
559.426	0.16
559.764	0.14
560.102	0.13
560.439	0.12
560.777	0.12
561.115	0.11
561.453	0.1
561.79	0.1
562.128	0.1
562.466	0.09
562.803	0.09
563.141	0.09
563.478	0.08
563.816	0.08
564.153	0.08
564.49	0.08
564.827	0.08
565.165	0.07
565.502	0.07
565.839	0.07
566.176	0.07
566.513	0.07
566.85	0.07
567.187	0.07
567.524	0.07
567.861	0.06
568.198	0.06
568.534	0.06
568.871	0.06
569.208	0.06
569.544	0.06
569.881	0.06
570.218	0.06
570.554	0.06
570.891	0.06
571.227	0.06
571.563	0.06
571.9	0.06
572.236	0.06
572.572	0.06
572.908	0.06
573.244	0.06
573.581	0.06
573.917	0.06
574.253	0.06
574.588	0.06
574.924	0.05
575.26	0.05
575.596	0.06
575.932	0.06
576.268	0.06
576.603	0.06
576.939	0.06
577.274	0.06
577.61	0.06
577.946	0.07
578.281	0.08
578.616	0.1
578.952	0.12
579.287	0.14
579.622	0.15
579.958	0.17
580.293	0.18
580.628	0.21
580.963	0.23
581.298	0.25
581.633	0.27
581.968	0.28
582.303	0.28
582.638	0.28
582.973	0.29
583.307	0.29
583.642	0.3
583.977	0.31
584.311	0.31
584.646	0.31
584.98	0.31
585.315	0.32
585.649	0.33
585.984	0.34
586.318	0.35
586.652	0.36
586.987	0.37
587.321	0.38
587.655	0.38
587.989	0.38
588.323	0.39
588.657	0.39
588.991	0.4
589.325	0.41
589.659	0.42
589.993	0.42
590.327	0.42
590.661	0.42
590.994	0.41
591.328	0.41
591.662	0.4
591.995	0.39
592.329	0.38
592.662	0.36
592.996	0.34
593.329	0.32
593.662	0.3
593.996	0.3
594.329	0.29
594.662	0.3
594.995	0.31
595.328	0.32
595.661	0.32
595.994	0.33
596.327	0.33
596.66	0.33
596.993	0.32
597.326	0.32
597.659	0.31
597.992	0.3
598.324	0.28
598.657	0.27
598.99	0.25
599.322	0.23
599.655	0.22
599.987	0.22
600.32	0.21
600.652	0.21
600.984	0.22
601.317	0.22
601.649	0.23
601.981	0.24
602.313	0.24
602.645	0.25
602.977	0.25
603.309	0.26
603.641	0.26
603.973	0.25
604.305	0.25
604.637	0.24
604.969	0.23
605.3	0.22
605.632	0.22
605.964	0.21
606.295	0.21
606.627	0.2
606.958	0.2
607.29	0.2
607.621	0.2
607.952	0.2
608.284	0.21
608.615	0.22
608.946	0.22
609.277	0.23
609.609	0.24
609.94	0.25
610.271	0.27
610.602	0.29
610.933	0.31
611.263	0.35
611.594	0.39
611.925	0.45
612.256	0.56
612.587	0.73
612.917	0.94
613.248	1.18
613.578	1.4
613.909	1.6
614.239	1.77
614.57	1.91
614.9	2.02
615.23	2.11
615.561	2.17
615.891	2.17
616.221	2.1
616.551	1.97
616.881	1.81
617.211	1.65
617.541	1.51
617.871	1.39
618.201	1.28
618.531	1.19
618.861	1.1
619.191	1.03
619.52	0.96
619.85	0.9
620.18	0.85
620.509	0.81
620.839	0.78
621.168	0.75
621.498	0.74
621.827	0.73
622.157	0.73
622.486	0.73
622.815	0.74
623.144	0.75
623.473	0.77
623.803	0.78
624.132	0.8
624.461	0.82
624.79	0.84
625.119	0.86
625.447	0.88
625.776	0.89
626.105	0.92
626.434	0.93
626.762	0.96
627.091	0.98
627.42	1
627.748	1.02
628.077	1.05
628.405	1.07
628.734	1.1
629.062	1.12
629.39	1.14
629.719	1.17
630.047	1.19
630.375	1.22
630.703	1.24
631.031	1.27
631.359	1.3
631.687	1.33
632.015	1.37
632.343	1.41
632.671	1.46
632.999	1.51
633.326	1.56
633.654	1.61
633.982	1.65
634.309	1.69
634.637	1.73
634.964	1.77
635.292	1.8
635.619	1.83
635.947	1.86
636.274	1.88
636.601	1.9
636.928	1.92
637.256	1.95
637.583	1.98
637.91	2.03
638.237	2.07
638.564	2.12
638.891	2.18
639.218	2.23
639.544	2.3
639.871	2.37
640.198	2.44
640.525	2.51
640.851	2.59
641.178	2.66
641.504	2.74
641.831	2.83
642.157	2.91
642.484	3
642.81	3.09
643.137	3.18
643.463	3.28
643.789	3.38
644.115	3.49
644.441	3.6
644.767	3.71
645.093	3.83
645.419	3.94
645.745	4.06
646.071	4.19
646.397	4.33
646.723	4.47
647.049	4.6
647.374	4.75
647.7	4.9
648.026	5.05
648.351	5.21
648.677	5.37
649.002	5.55
649.328	5.72
649.653	5.9
649.978	6.08
650.303	6.27
650.629	6.46
650.954	6.66
651.279	6.87
651.604	7.07
651.929	7.29
652.254	7.5
652.579	7.73
652.904	7.96
653.229	8.18
653.554	8.41
653.878	8.65
654.203	8.88
654.528	9.11
654.852	9.35
655.177	9.59
655.501	9.82
655.826	10.05
656.15	10.28
656.474	10.52
656.799	10.74
657.123	10.97
657.447	11.18
657.771	11.4
658.096	11.6
658.42	11.79
658.744	11.97
659.068	12.14
659.392	12.29
659.715	12.41
660.039	12.52
660.363	12.61
660.687	12.67
661.01	12.71
661.334	12.71
661.658	12.69
661.981	12.63
662.305	12.55
662.628	12.43
662.952	12.28
663.275	12.09
663.598	11.88
663.921	11.64
664.245	11.37
664.568	11.07
664.891	10.75
665.214	10.4
665.537	10.04
665.86	9.67
666.183	9.28
666.506	8.89
666.828	8.5
667.151	8.1
667.474	7.71
667.797	7.32
668.119	6.94
668.442	6.58
668.764	6.22
669.087	5.88
669.409	5.55
669.732	5.24
670.054	4.95
670.376	4.67
670.698	4.4
671.021	4.15
671.343	3.92
671.665	3.7
671.987	3.49
672.309	3.29
672.631	3.11
672.953	2.93
673.275	2.77
673.596	2.61
673.918	2.46
674.24	2.33
674.561	2.2
674.883	2.07
675.205	1.96
675.526	1.85
675.848	1.75
676.169	1.66
676.49	1.57
676.812	1.48
677.133	1.4
677.454	1.32
677.775	1.25
678.096	1.18
678.417	1.12
678.739	1.06
679.059	1
679.38	0.94
679.701	0.89
680.022	0.84
680.343	0.8
680.664	0.76
680.984	0.72
681.305	0.68
681.625	0.65
681.946	0.62
682.266	0.59
682.587	0.56
682.907	0.54
683.228	0.51
683.548	0.49
683.868	0.47
684.188	0.44
684.508	0.43
684.829	0.4
685.149	0.39
685.469	0.37
685.789	0.35
686.108	0.33
686.428	0.32
686.748	0.31
687.068	0.29
687.387	0.28
687.707	0.27
688.027	0.26
688.346	0.25
688.666	0.25
688.985	0.24
689.305	0.24
689.624	0.24
689.943	0.23
690.263	0.23
690.582	0.22
690.901	0.22
691.22	0.21
691.539	0.21
691.858	0.2
692.177	0.19
692.496	0.18
692.815	0.17
693.134	0.16
693.452	0.15
693.771	0.15
694.09	0.14
694.408	0.13
694.727	0.13
695.045	0.12
695.364	0.12
695.682	0.12
696.001	0.12
696.319	0.12
696.637	0.11
696.956	0.12
697.274	0.11
697.592	0.11
697.91	0.11
698.228	0.11
698.546	0.1
698.864	0.1
699.182	0.09
699.499	0.08
699.817	0.08
700.135	0.08
700.453	0.07
700.77	0.07
701.088	0.07
701.405	0.07
701.723	0.06
702.04	0.06
702.358	0.06
702.675	0.06
702.992	0.06
703.31	0.06
703.627	0.06
703.944	0.06
704.261	0.06
704.578	0.05
704.895	0.05
705.212	0.05
705.529	0.05
705.846	0.05
706.162	0.05
706.479	0.05
706.796	0.06
707.112	0.06
707.429	0.06
707.746	0.07
708.062	0.08
708.378	0.1
708.695	0.11
709.011	0.12
709.327	0.14
709.644	0.15
709.96	0.16
710.276	0.17
710.592	0.18
710.908	0.19
711.224	0.2
711.54	0.2
711.856	0.19
712.172	0.18
712.488	0.17
712.803	0.16
713.119	0.16
713.435	0.15
713.75	0.15
714.066	0.15
714.381	0.14
714.697	0.14
715.012	0.14
715.327	0.14
715.643	0.14
715.958	0.14
716.273	0.14
716.588	0.13
716.903	0.12
717.218	0.11
717.533	0.09
717.848	0.08
718.163	0.07
718.478	0.06
718.793	0.05
719.108	0.04
719.422	0.04
719.737	0.04
720.052	0.04
720.366	0.04
720.681	0.04
720.995	0.04
721.309	0.04
721.624	0.04
721.938	0.04
722.252	0.03
722.566	0.03
722.881	0.04
723.195	0.03
723.509	0.03
723.823	0.03
724.137	0.02
724.45	0.02
724.764	0.02
725.078	0.02
725.392	0.02
725.706	0.02
726.019	0.02
726.333	0.02
726.646	0.02
726.96	0.02
727.273	0.02
727.587	0.02
727.9	0.02
728.213	0.02
728.526	0.02
728.84	0.02
729.153	0.02
729.466	0.02
729.779	0.02
730.092	0.01
730.405	0.01
730.718	0.01
731.03	0.02
731.343	0.02
731.656	0.01
731.969	0.01
732.281	0.01
732.594	0.02
732.906	0.02
733.219	0.02
733.531	0.02
733.844	0.03
734.156	0.03
734.468	0.02
734.78	0.02
735.093	0.02
735.405	0.02
735.717	0.02
736.029	0.02
736.341	0.02
736.653	0.02
736.965	0.02
737.276	0.02
737.588	0.02
737.9	0.01
738.211	0.02
738.523	0.02
738.835	0.02
739.146	0.02
739.458	0.02
739.769	0.02
740.08	0.02
740.392	0.02
740.703	0.02
741.014	0.02
741.325	0.02
741.636	0.02
741.947	0.02
742.258	0.02
742.569	0.02
742.88	0.02
743.191	0.02
743.502	0.02
743.813	0.02
744.123	0.02
744.434	0.02
744.745	0.02
745.055	0.02
745.366	0.02
745.676	0.03
745.987	0.03
746.297	0.03
746.607	0.03
746.917	0.03
747.228	0.03
747.538	0.03
747.848	0.03
748.158	0.03
748.468	0.03
748.778	0.03
749.088	0.03
749.397	0.03
749.707	0.03
750.017	0.02
750.327	0.02
750.636	0.02
750.946	0.02
751.255	0.02
751.565	0.02
751.874	0.02
752.184	0.02
752.493	0.02
752.802	0.01
753.111	0.02
753.421	0.02
753.73	0.01
754.039	0.02
754.348	0.02
754.657	0.02
754.966	0.01
755.274	0.01
755.583	0.01
755.892	0.01
756.201	0.01
756.509	0.01
756.818	0.02
757.127	0.02
757.435	0.01
757.743	0.01
758.052	0.01
758.36	0.01
758.668	0.02
758.977	0.03
759.285	0.03
759.593	0.03
759.901	0.02
760.209	0.02
760.517	0.02
760.825	0.03
761.133	0.03
761.441	0.03
761.749	0.04
762.056	0.03
762.364	0.04
762.672	0.04
762.979	0.04
763.287	0.04
763.594	0.04
763.902	0.05
764.209	0.04
764.516	0.04
764.823	0.04
765.131	0.04
765.438	0.04
765.745	0.04
766.052	0.03
766.359	0.03
766.666	0.03
766.973	0.03
767.28	0.02
767.587	0.02
767.893	0.02
768.2	0.02
768.507	0.02
768.813	0.02
769.12	0.01
769.426	0.01
769.733	0.01
770.039	0.01
770.345	0.02
770.652	0.02
770.958	0.02
771.264	0.03
771.57	0.02
771.876	0.01
772.182	0.01
772.488	0.01
772.794	0
773.1	0
773.406	0
773.712	-0.01
774.017	0
774.323	0
774.628	-0
774.934	-0.01
775.24	-0.01
775.545	-0.02
775.85	-0
776.156	0
776.461	0.01
776.766	0.01
777.071	0.01
777.377	0.01
777.682	0.01
777.987	0.02
778.292	0.02
778.597	0.03
778.901	0.04
779.206	0.04
779.511	0.04
779.816	0.04
780.12	0.04
780.425	0.04
780.73	0.05
781.034	0.04
781.339	0.04
781.643	0.05
781.947	0.04
782.252	0.04
782.556	0.02
782.86	0.01
783.164	0.01
783.468	0.02
783.772	0.02
784.076	0.02
784.38	0.04
784.684	0.04
784.988	0.03
785.292	0.04
785.595	0.04
785.899	0.05
786.203	0.06
786.506	0.04
786.81	0.04
787.113	0.04
787.417	0.03
787.72	0.03
788.023	0.02
788.327	0.03
788.63	0.03
788.933	0.05
789.236	0.06
789.539	0.07
789.842	0.09
790.145	0.09
790.448	0.09
790.751	0.1
791.054	0.1
791.356	0.1
791.659	0.09
791.962	0.09
792.264	0.08
792.567	0.07
792.869	0.06
793.172	0.05
793.474	0.05
793.776	0.06
794.078	0.05
794.381	0.05
794.683	0.06
794.985	0.06
795.287	0.06
795.589	0.05
795.891	0.06
796.193	0.04
796.495	0.04
796.796	0.03
797.098	0.02
797.4	0.03
797.701	0.02
798.003	0.04
798.304	0.03
798.606	0.04
798.907	0.04
799.209	0.05
799.51	0.04
799.811	0.04
800.112	0.04
800.414	0.02
800.715	0
801.016	0
801.317	-0.02
801.618	-0.02
801.919	-0.05
802.219	-0.05
802.52	-0.05
802.821	-0.04
803.122	-0.05
803.422	-0.04
803.723	-0.03
804.023	-0.03
804.324	-0.02
804.624	-0.01
804.924	0.01
805.225	0.02
805.525	0.02
805.825	0.02
806.125	0.03
806.425	0.04
806.725	0.04
807.025	0.04
807.325	0.05
807.625	0.04
807.925	0.04
808.225	0.02
808.525	0.02
808.824	0.02
809.124	0.01
809.423	0.01
809.723	0.01
810.022	0.03
810.322	0.03
810.621	0.02
810.92	0.02
811.22	-0.01
811.519	0.01
811.818	0.02
812.117	0.01
812.416	0.01
812.715	0.03
813.014	0.01
813.313	-0
813.612	0.02
813.91	0.04
814.209	0.05
814.508	0.08
814.806	0.06
815.105	0.06
815.403	0.07
815.702	0.09
816	0.08
816.298	0.09
816.597	0.11
816.895	0.09
817.193	0.06
817.491	0.07
817.789	0.06
818.087	0.1
818.385	0.11
818.683	0.09
818.981	0.08
819.279	0.07
819.577	0.07
819.874	0.08
820.172	0.09
820.469	0.09
820.767	0.07
821.064	0.06
821.362	0.02
821.659	0.01
821.957	0.03
822.254	0.05
822.551	0.05
822.848	0.06
823.145	0.06
823.442	0.07
823.739	0.06
824.036	0.11
824.333	0.12
824.63	0.12
824.927	0.13
825.223	0.12
825.52	0.13
825.817	0.1
826.113	0.07
826.41	0.06
826.706	0.05
827.003	0.06
827.299	0.02
827.595	0.04
827.892	0.05
828.188	0.07
828.484	0.06
828.78	0.03
829.076	0.06
829.372	0.09
829.668	0.08
829.964	0.06
830.26	0.06
830.555	0.08
830.851	0.08
831.147	0.09
831.442	0.06
831.738	0.09
832.033	0.1
832.329	0.09
832.624	0.1
832.919	0.11
833.215	0.12
833.51	0.14
833.805	0.18
834.1	0.16
834.395	0.17
834.69	0.19
834.985	0.16
835.28	0.13
835.575	0.15
835.87	0.14
836.164	0.11
836.459	0.09
836.754	0.08
837.048	0.04
837.343	0.05
837.637	0.04
837.932	0.02
838.226	0.04
838.52	0.04
838.814	0.01
839.109	-0.03
839.403	-0.01
839.697	-0
839.991	-0.03
840.285	-0.02
840.579	-0.01
840.873	0.01
841.166	-0
841.46	-0.02
841.754	-0.01
842.047	-0
842.341	0.03
842.635	0.03
842.928	0.07
843.222	0.09
843.515	0.1
843.808	0.11
844.101	0.09
844.395	0.09
844.688	0.07
844.981	0.09
845.274	0.1
845.567	0.11
845.86	0.15
846.153	0.12
846.446	0.12
846.738	0.1
847.031	0.09
847.324	0.08
847.616	0.1
847.909	0.19
848.201	0.19
848.494	0.19
848.786	0.13
849.079	0.11
849.371	0.1
849.663	0.11
849.955	0.1
850.247	0.07
850.539	0.03
850.831	0.04
851.123	-0.04
851.415	-0.1
851.707	-0.08
851.999	-0.04
852.291	0.01
852.582	-0.03
852.874	-0.04
853.166	-0.05
853.457	0.02
853.749	-0.06
854.04	-0.04
854.331	-0.02
854.623	0.02
854.914	0.03
855.205	0.06
855.496	-0.01
855.787	0.03
856.078	-0.02
856.369	0.08
856.66	0.05
856.951	0.23
857.242	0.23
857.533	0.27
857.823	0.34
858.114	0.31
858.404	0.29
858.695	0.35
858.985	0.4
859.276	0.38
859.566	0.22
859.857	0.28
860.147	0.27
860.437	0.37
860.727	0.37
861.017	0.28
861.307	0.21
861.597	0.24
861.887	0.2
862.177	0.24
862.467	0.55
862.757	0.69
863.046	0.62
863.336	0.42
863.626	0.23
863.915	0.27
864.205	0.31
864.494	0.4
864.783	0.26
865.073	0.29
865.362	0.22
865.651	-0.12
865.94	-0.13
866.229	-0.22
866.518	-0.04
866.807	0.01
867.096	-0.08
867.385	0.1
867.674	0.17
867.963	0.4
868.252	0.34
868.54	0.4
868.829	0.55
869.117	0.57
869.406	0.68
869.694	0.8
869.983	0.89
870.271	0.94
870.559	0.66
