Data from AbsoluteIrradiance__3__17-12-39-360.txt Node

Date: Fri Jul 22 17:12:39 EDT 2022
User: enochs
Spectrometer: FLMS17410
Trigger mode: 0
Integration Time (sec): 1.545400E-1
Scans to average: 5
Electric dark correction enabled: true
Nonlinearity correction enabled: true
Boxcar width: 5
XAxis mode: Wavelengths
Number of Pixels in Spectrum: 2048
>>>>>Begin Spectral Data<<<<<
179.501	-0
179.881	-0
180.261	-0
180.64	-0
181.02	0
181.399	0
181.779	0
182.158	0
182.537	0
182.917	0
183.296	0
183.675	0
184.055	-0
184.434	-0
184.813	-0
185.192	-0
185.571	-0
185.95	-0
186.329	-0
186.708	0
187.087	0
187.466	0
187.845	0
188.224	0
188.603	0
188.982	0
189.361	0
189.739	0
190.118	0
190.497	0
190.875	0
191.254	0
191.632	0
192.011	0
192.39	0
192.768	0
193.146	0
193.525	0
193.903	0
194.282	0
194.66	0
195.038	0
195.416	0
195.794	0
196.173	0
196.551	0
196.929	0
197.307	0
197.685	0
198.063	0
198.441	0
198.819	0
199.197	0
199.575	0
199.952	0
200.33	12.99
200.708	12.66
201.086	12.27
201.463	11.7
201.841	10.86
202.218	10.27
202.596	9.52
202.974	8.86
203.351	8.4
203.729	8.03
204.106	8.05
204.483	7.36
204.861	6.83
205.238	6.55
205.615	5.88
205.993	5.75
206.37	5.6
206.747	5.61
207.124	5.38
207.501	5.07
207.878	4.78
208.255	4.51
208.632	4.4
209.009	4.19
209.386	4.05
209.763	3.92
210.14	3.63
210.517	3.44
210.894	3.32
211.271	3.1
211.647	2.98
212.024	2.82
212.401	2.75
212.777	2.66
213.154	2.63
213.531	2.49
213.907	2.47
214.284	2.43
214.66	2.32
215.036	2.22
215.413	2.2
215.789	2.17
216.166	2.2
216.542	2.08
216.918	2.01
217.294	1.99
217.67	1.97
218.047	1.88
218.423	1.76
218.799	1.66
219.175	1.56
219.551	1.55
219.927	1.49
220.303	1.41
220.679	1.39
221.054	1.34
221.43	1.27
221.806	1.27
222.182	1.22
222.558	1.21
222.933	1.27
223.309	1.26
223.685	1.23
224.06	1.21
224.436	1.2
224.811	1.18
225.187	1.17
225.562	1.15
225.938	1.11
226.313	1.11
226.688	1.12
227.064	1.05
227.439	1.08
227.814	1.05
228.189	1.02
228.564	1.01
228.94	0.99
229.315	0.94
229.69	0.93
230.065	0.91
230.44	0.91
230.815	0.9
231.19	0.9
231.564	0.84
231.939	0.84
232.314	0.83
232.689	0.82
233.064	0.8
233.438	0.82
233.813	0.81
234.188	0.78
234.562	0.76
234.937	0.75
235.311	0.72
235.686	0.7
236.06	0.7
236.435	0.68
236.809	0.67
237.183	0.67
237.558	0.66
237.932	0.65
238.306	0.65
238.68	0.63
239.055	0.61
239.429	0.6
239.803	0.61
240.177	0.59
240.551	0.57
240.925	0.55
241.299	0.53
241.673	0.51
242.047	0.51
242.42	0.51
242.794	0.49
243.168	0.49
243.542	0.49
243.915	0.48
244.289	0.47
244.663	0.47
245.036	0.47
245.41	0.46
245.783	0.45
246.157	0.43
246.53	0.42
246.904	0.41
247.277	0.39
247.651	0.4
248.024	0.39
248.397	0.38
248.77	0.38
249.144	0.36
249.517	0.35
249.89	0.35
250.263	0.35
250.636	0.33
251.009	0.34
251.382	0.33
251.755	0.32
252.128	0.31
252.501	0.31
252.874	0.3
253.246	0.3
253.619	0.29
253.992	0.28
254.365	0.27
254.737	0.27
255.11	0.26
255.483	0.26
255.855	0.25
256.228	0.25
256.6	0.23
256.973	0.22
257.345	0.22
257.717	0.22
258.09	0.22
258.462	0.22
258.834	0.22
259.206	0.22
259.579	0.22
259.951	0.21
260.323	0.21
260.695	0.21
261.067	0.22
261.439	0.22
261.811	0.22
262.183	0.22
262.555	0.22
262.927	0.21
263.299	0.22
263.67	0.22
264.042	0.22
264.414	0.21
264.786	0.22
265.157	0.21
265.529	0.21
265.9	0.21
266.272	0.2
266.643	0.2
267.015	0.2
267.386	0.19
267.758	0.19
268.129	0.19
268.5	0.2
268.872	0.2
269.243	0.19
269.614	0.19
269.985	0.2
270.357	0.2
270.728	0.2
271.099	0.19
271.47	0.19
271.841	0.19
272.212	0.18
272.583	0.17
272.953	0.17
273.324	0.18
273.695	0.18
274.066	0.17
274.437	0.16
274.807	0.15
275.178	0.15
275.549	0.15
275.919	0.15
276.29	0.15
276.66	0.15
277.031	0.16
277.401	0.15
277.772	0.15
278.142	0.15
278.512	0.16
278.883	0.16
279.253	0.16
279.623	0.17
279.993	0.17
280.364	0.17
280.734	0.17
281.104	0.16
281.474	0.16
281.844	0.16
282.214	0.16
282.584	0.16
282.954	0.15
283.323	0.15
283.693	0.15
284.063	0.15
284.433	0.14
284.802	0.15
285.172	0.14
285.542	0.14
285.911	0.14
286.281	0.14
286.65	0.14
287.02	0.14
287.389	0.14
287.759	0.14
288.128	0.14
288.498	0.14
288.867	0.14
289.236	0.14
289.605	0.14
289.975	0.13
290.344	0.13
290.713	0.13
291.082	0.12
291.451	0.12
291.82	0.12
292.189	0.12
292.558	0.12
292.927	0.12
293.296	0.12
293.664	0.12
294.033	0.12
294.402	0.12
294.771	0.13
295.139	0.13
295.508	0.13
295.877	0.13
296.245	0.14
296.614	0.13
296.982	0.13
297.351	0.13
297.719	0.13
298.087	0.13
298.456	0.13
298.824	0.12
299.192	0.12
299.561	0.12
299.929	0.11
300.297	0.11
300.665	0.11
301.033	0.1
301.401	0.1
301.769	0.1
302.137	0.1
302.505	0.1
302.873	0.09
303.241	0.09
303.609	0.1
303.976	0.1
304.344	0.1
304.712	0.1
305.079	0.1
305.447	0.11
305.815	0.11
306.182	0.11
306.55	0.11
306.917	0.11
307.285	0.11
307.652	0.11
308.019	0.1
308.387	0.1
308.754	0.1
309.121	0.1
309.489	0.09
309.856	0.09
310.223	0.09
310.59	0.09
310.957	0.09
311.324	0.09
311.691	0.09
312.058	0.1
312.425	0.09
312.792	0.09
313.159	0.09
313.525	0.09
313.892	0.09
314.259	0.09
314.626	0.09
314.992	0.09
315.359	0.09
315.725	0.08
316.092	0.08
316.459	0.09
316.825	0.09
317.191	0.09
317.558	0.09
317.924	0.09
318.29	0.09
318.657	0.09
319.023	0.09
319.389	0.09
319.755	0.09
320.121	0.09
320.488	0.09
320.854	0.09
321.22	0.09
321.586	0.09
321.952	0.09
322.317	0.09
322.683	0.09
323.049	0.09
323.415	0.09
323.781	0.09
324.146	0.09
324.512	0.09
324.878	0.08
325.243	0.08
325.609	0.08
325.974	0.08
326.34	0.08
326.705	0.09
327.071	0.09
327.436	0.08
327.801	0.09
328.167	0.09
328.532	0.08
328.897	0.09
329.262	0.09
329.627	0.09
329.992	0.09
330.357	0.09
330.722	0.09
331.087	0.09
331.452	0.09
331.817	0.09
332.182	0.09
332.547	0.09
332.912	0.09
333.277	0.09
333.641	0.08
334.006	0.08
334.371	0.08
334.735	0.08
335.1	0.08
335.464	0.08
335.829	0.08
336.193	0.08
336.558	0.08
336.922	0.08
337.286	0.08
337.651	0.08
338.015	0.08
338.379	0.08
338.743	0.08
339.107	0.08
339.471	0.08
339.836	0.08
340.2	0.08
340.564	0.08
340.927	0.08
341.291	0.08
341.655	0.08
342.019	0.08
342.383	0.08
342.747	0.07
343.11	0.07
343.474	0.08
343.838	0.08
344.201	0.07
344.565	0.07
344.928	0.07
345.292	0.07
345.655	0.07
346.019	0.07
346.382	0.07
346.745	0.07
347.109	0.07
347.472	0.07
347.835	0.07
348.198	0.07
348.561	0.07
348.925	0.07
349.288	0.07
349.651	0.07
350.014	0.07
350.377	0.07
350.739	0.07
351.102	0.07
351.465	0.07
351.828	0.07
352.191	0.07
352.553	0.07
352.916	0.07
353.279	0.07
353.641	0.07
354.004	0.07
354.366	0.07
354.729	0.07
355.091	0.07
355.454	0.07
355.816	0.07
356.178	0.07
356.541	0.07
356.903	0.07
357.265	0.07
357.627	0.07
357.989	0.07
358.351	0.07
358.714	0.07
359.076	0.07
359.437	0.07
359.799	0.07
360.161	0.07
360.523	0.07
360.885	0.07
361.247	0.07
361.608	0.07
361.97	0.07
362.332	0.07
362.693	0.07
363.055	0.07
363.417	0.07
363.778	0.07
364.14	0.07
364.501	0.07
364.862	0.07
365.224	0.07
365.585	0.07
365.946	0.07
366.307	0.07
366.669	0.07
367.03	0.07
367.391	0.07
367.752	0.07
368.113	0.07
368.474	0.07
368.835	0.07
369.196	0.08
369.557	0.07
369.918	0.07
370.278	0.07
370.639	0.07
371	0.07
371.361	0.07
371.721	0.07
372.082	0.07
372.442	0.07
372.803	0.07
373.163	0.07
373.524	0.07
373.884	0.07
374.245	0.07
374.605	0.07
374.965	0.07
375.325	0.07
375.686	0.07
376.046	0.07
376.406	0.07
376.766	0.07
377.126	0.07
377.486	0.08
377.846	0.08
378.206	0.07
378.566	0.07
378.926	0.08
379.285	0.07
379.645	0.07
380.005	0.07
380.365	0.07
380.724	0.07
381.084	0.07
381.443	0.07
381.803	0.07
382.163	0.07
382.522	0.07
382.881	0.07
383.241	0.07
383.6	0.07
383.959	0.07
384.319	0.07
384.678	0.07
385.037	0.07
385.396	0.07
385.755	0.08
386.114	0.08
386.473	0.08
386.832	0.07
387.191	0.07
387.55	0.07
387.909	0.07
388.268	0.07
388.627	0.07
388.985	0.07
389.344	0.07
389.703	0.07
390.061	0.07
390.42	0.08
390.778	0.07
391.137	0.08
391.495	0.08
391.854	0.08
392.212	0.08
392.57	0.08
392.929	0.08
393.287	0.08
393.645	0.08
394.003	0.08
394.362	0.08
394.72	0.08
395.078	0.08
395.436	0.08
395.794	0.08
396.152	0.08
396.51	0.08
396.867	0.08
397.225	0.08
397.583	0.09
397.941	0.09
398.298	0.09
398.656	0.09
399.014	0.09
399.371	0.09
399.729	0.09
400.086	0.1
400.444	0.1
400.801	0.1
401.159	0.1
401.516	0.1
401.873	0.1
402.23	0.1
402.588	0.11
402.945	0.11
403.302	0.11
403.659	0.11
404.016	0.11
404.373	0.12
404.73	0.12
405.087	0.12
405.444	0.13
405.801	0.15
406.158	0.18
406.514	0.22
406.871	0.26
407.228	0.29
407.584	0.31
407.941	0.32
408.298	0.33
408.654	0.34
409.011	0.34
409.367	0.35
409.723	0.35
410.08	0.33
410.436	0.3
410.792	0.28
411.149	0.26
411.505	0.26
411.861	0.26
412.217	0.26
412.573	0.27
412.929	0.28
413.285	0.29
413.641	0.3
413.997	0.32
414.353	0.33
414.709	0.35
415.065	0.37
415.42	0.39
415.776	0.41
416.132	0.43
416.487	0.45
416.843	0.48
417.199	0.51
417.554	0.54
417.91	0.58
418.265	0.61
418.62	0.65
418.976	0.69
419.331	0.73
419.686	0.78
420.042	0.83
420.397	0.88
420.752	0.94
421.107	1
421.462	1.07
421.817	1.13
422.172	1.21
422.527	1.29
422.882	1.37
423.237	1.47
423.592	1.56
423.946	1.67
424.301	1.78
424.656	1.89
425.01	2.02
425.365	2.15
425.72	2.29
426.074	2.45
426.429	2.61
426.783	2.78
427.137	2.96
427.492	3.16
427.846	3.36
428.2	3.59
428.555	3.82
428.909	4.06
429.263	4.32
429.617	4.6
429.971	4.91
430.325	5.21
430.679	5.54
431.033	5.89
431.387	6.25
431.741	6.63
432.095	7.03
432.449	7.46
432.802	7.9
433.156	8.38
433.51	8.86
433.863	9.37
434.217	9.91
434.571	10.47
434.924	11.07
435.278	11.66
435.631	12.29
435.984	12.94
436.338	13.62
436.691	14.29
437.044	14.91
437.397	15.46
437.751	15.97
438.104	16.41
438.457	16.79
438.81	17.08
439.163	17.34
439.516	17.51
439.869	17.62
440.222	17.64
440.575	17.62
440.927	17.6
441.28	17.6
441.633	17.56
441.986	17.54
442.338	17.51
442.691	17.49
443.043	17.44
443.396	17.42
443.748	17.39
444.101	17.4
444.453	17.4
444.805	17.35
445.158	17.31
445.51	17.3
445.862	17.26
446.214	17.25
446.567	17.22
446.919	17.19
447.271	17.14
447.623	17.11
447.975	17.05
448.327	17
448.679	16.97
449.03	16.92
449.382	16.86
449.734	16.81
450.086	16.78
450.437	16.74
450.789	16.72
451.141	16.76
451.492	16.7
451.844	16.7
452.195	16.7
452.547	16.69
452.898	16.7
453.249	16.7
453.601	16.7
453.952	16.68
454.303	16.7
454.654	16.7
455.005	16.64
455.357	16.68
455.708	16.67
456.059	16.64
456.41	16.64
456.76	16.65
457.111	16.63
457.462	16.63
457.813	16.64
458.164	16.62
458.515	16.62
458.865	16.63
459.216	16.6
459.566	16.57
459.917	16.57
460.267	16.54
460.618	16.48
460.968	16.47
461.319	16.44
461.669	16.4
462.019	16.36
462.37	16.28
462.72	16.21
463.07	16.18
463.42	16.14
463.77	16.09
464.12	16.06
464.47	16
464.82	15.95
465.17	15.89
465.52	15.82
465.87	15.76
466.22	15.71
466.569	15.65
466.919	15.55
467.269	15.42
467.618	15.33
467.968	15.2
468.318	15.09
468.667	14.95
469.017	14.81
469.366	14.68
469.715	14.56
470.065	14.41
470.414	14.27
470.763	14.13
471.112	13.99
471.462	13.85
471.811	13.69
472.16	13.53
472.509	13.39
472.858	13.25
473.207	13.07
473.556	12.84
473.905	12.61
474.253	12.32
474.602	12.03
474.951	11.72
475.3	11.37
475.648	11.02
475.997	10.65
476.345	10.25
476.694	9.84
477.042	9.45
477.391	9.08
477.739	8.72
478.088	8.38
478.436	8.05
478.784	7.74
479.132	7.44
479.481	7.17
479.829	6.9
480.177	6.65
480.525	6.42
480.873	6.2
481.221	5.99
481.569	5.79
481.917	5.61
482.265	5.44
482.612	5.27
482.96	5.11
483.308	4.96
483.656	4.82
484.003	4.68
484.351	4.54
484.698	4.42
485.046	4.3
485.393	4.18
485.741	4.07
486.088	3.96
486.435	3.86
486.783	3.76
487.13	3.67
487.477	3.58
487.824	3.49
488.171	3.4
488.518	3.32
488.866	3.24
489.212	3.16
489.559	3.08
489.906	3
490.253	2.92
490.6	2.84
490.947	2.75
491.294	2.67
491.64	2.58
491.987	2.49
492.333	2.41
492.68	2.32
493.027	2.24
493.373	2.15
493.719	2.07
494.066	1.99
494.412	1.92
494.759	1.84
495.105	1.78
495.451	1.71
495.797	1.65
496.143	1.59
496.489	1.53
496.835	1.48
497.181	1.43
497.527	1.38
497.873	1.33
498.219	1.28
498.565	1.24
498.911	1.2
499.257	1.16
499.602	1.12
499.948	1.08
500.294	1.05
500.639	1.01
500.985	0.98
501.33	0.95
501.676	0.92
502.021	0.88
502.366	0.86
502.712	0.83
503.057	0.8
503.402	0.77
503.747	0.75
504.092	0.72
504.438	0.7
504.783	0.68
505.128	0.65
505.473	0.63
505.817	0.61
506.162	0.59
506.507	0.57
506.852	0.55
507.197	0.53
507.541	0.51
507.886	0.5
508.231	0.48
508.575	0.47
508.92	0.45
509.264	0.43
509.609	0.42
509.953	0.41
510.297	0.39
510.642	0.38
510.986	0.37
511.33	0.36
511.674	0.35
512.019	0.34
512.363	0.33
512.707	0.32
513.051	0.31
513.395	0.31
513.739	0.3
514.083	0.29
514.426	0.28
514.77	0.27
515.114	0.27
515.458	0.26
515.801	0.26
516.145	0.25
516.488	0.24
516.832	0.24
517.175	0.23
517.519	0.23
517.862	0.22
518.206	0.22
518.549	0.21
518.892	0.21
519.235	0.21
519.579	0.2
519.922	0.2
520.265	0.19
520.608	0.19
520.951	0.19
521.294	0.18
521.637	0.18
521.98	0.18
522.323	0.17
522.665	0.17
523.008	0.17
523.351	0.16
523.693	0.16
524.036	0.16
524.379	0.15
524.721	0.15
525.064	0.15
525.406	0.15
525.748	0.14
526.091	0.14
526.433	0.14
526.775	0.14
527.118	0.14
527.46	0.14
527.802	0.13
528.144	0.13
528.486	0.13
528.828	0.13
529.17	0.13
529.512	0.13
529.854	0.13
530.195	0.12
530.537	0.12
530.879	0.12
531.221	0.12
531.562	0.12
531.904	0.12
532.245	0.12
532.587	0.12
532.928	0.11
533.27	0.11
533.611	0.11
533.953	0.11
534.294	0.11
534.635	0.11
534.976	0.11
535.317	0.12
535.659	0.12
536	0.12
536.341	0.12
536.682	0.13
537.023	0.13
537.363	0.13
537.704	0.13
538.045	0.14
538.386	0.14
538.727	0.15
539.067	0.16
539.408	0.17
539.748	0.18
540.089	0.19
540.429	0.21
540.77	0.23
541.11	0.26
541.451	0.29
541.791	0.33
542.131	0.38
542.471	0.44
542.812	0.52
543.152	0.63
543.492	0.75
543.832	0.88
544.172	1.01
544.512	1.13
544.852	1.24
545.192	1.35
545.531	1.44
545.871	1.52
546.211	1.59
546.551	1.63
546.89	1.65
547.23	1.69
547.57	1.76
547.909	1.84
548.248	1.91
548.588	1.94
548.927	1.95
549.267	1.95
549.606	1.92
549.945	1.89
550.284	1.86
550.623	1.8
550.963	1.7
551.302	1.56
551.641	1.38
551.98	1.23
552.319	1.11
552.657	1
552.996	0.91
553.335	0.83
553.674	0.76
554.013	0.69
554.351	0.63
554.69	0.58
555.028	0.53
555.367	0.49
555.705	0.45
556.044	0.42
556.382	0.38
556.721	0.35
557.059	0.32
557.397	0.3
557.735	0.27
558.074	0.25
558.412	0.23
558.75	0.21
559.088	0.2
559.426	0.18
559.764	0.17
560.102	0.16
560.439	0.15
560.777	0.14
561.115	0.13
561.453	0.12
561.79	0.12
562.128	0.11
562.466	0.11
562.803	0.11
563.141	0.1
563.478	0.1
563.816	0.1
564.153	0.1
564.49	0.09
564.827	0.09
565.165	0.09
565.502	0.09
565.839	0.09
566.176	0.09
566.513	0.09
566.85	0.09
567.187	0.08
567.524	0.08
567.861	0.08
568.198	0.08
568.534	0.08
568.871	0.08
569.208	0.08
569.544	0.08
569.881	0.08
570.218	0.07
570.554	0.07
570.891	0.07
571.227	0.07
571.563	0.08
571.9	0.08
572.236	0.07
572.572	0.07
572.908	0.07
573.244	0.07
573.581	0.07
573.917	0.07
574.253	0.07
574.588	0.07
574.924	0.07
575.26	0.07
575.596	0.07
575.932	0.07
576.268	0.07
576.603	0.07
576.939	0.07
577.274	0.07
577.61	0.07
577.946	0.08
578.281	0.09
578.616	0.11
578.952	0.14
579.287	0.15
579.622	0.17
579.958	0.18
580.293	0.2
580.628	0.22
580.963	0.25
581.298	0.27
581.633	0.29
581.968	0.3
582.303	0.31
582.638	0.31
582.973	0.31
583.307	0.31
583.642	0.32
583.977	0.33
584.311	0.33
584.646	0.33
584.98	0.33
585.315	0.34
585.649	0.34
585.984	0.35
586.318	0.36
586.652	0.37
586.987	0.38
587.321	0.39
587.655	0.39
587.989	0.39
588.323	0.4
588.657	0.4
588.991	0.41
589.325	0.42
589.659	0.43
589.993	0.43
590.327	0.43
590.661	0.43
590.994	0.43
591.328	0.42
591.662	0.42
591.995	0.4
592.329	0.39
592.662	0.36
592.996	0.34
593.329	0.32
593.662	0.31
593.996	0.3
594.329	0.3
594.662	0.3
594.995	0.31
595.328	0.32
595.661	0.32
595.994	0.33
596.327	0.33
596.66	0.33
596.993	0.32
597.326	0.32
597.659	0.31
597.992	0.29
598.324	0.28
598.657	0.25
598.99	0.24
599.322	0.22
599.655	0.21
599.987	0.2
600.32	0.19
600.652	0.19
600.984	0.19
601.317	0.2
601.649	0.21
601.981	0.21
602.313	0.22
602.645	0.22
602.977	0.22
603.309	0.23
603.641	0.22
603.973	0.22
604.305	0.21
604.637	0.2
604.969	0.19
605.3	0.18
605.632	0.17
605.964	0.16
606.295	0.15
606.627	0.15
606.958	0.14
607.29	0.14
607.621	0.14
607.952	0.14
608.284	0.14
608.615	0.14
608.946	0.15
609.277	0.15
609.609	0.16
609.94	0.17
610.271	0.18
610.602	0.19
610.933	0.21
611.263	0.24
611.594	0.28
611.925	0.34
612.256	0.45
612.587	0.62
612.917	0.84
613.248	1.08
613.578	1.31
613.909	1.51
614.239	1.67
614.57	1.81
614.9	1.93
615.23	2.02
615.561	2.07
615.891	2.06
616.221	1.99
616.551	1.84
616.881	1.67
617.211	1.49
617.541	1.34
617.871	1.2
618.201	1.08
618.531	0.97
618.861	0.87
619.191	0.78
619.52	0.7
619.85	0.63
620.18	0.56
620.509	0.5
620.839	0.46
621.168	0.42
621.498	0.38
621.827	0.36
622.157	0.34
622.486	0.33
622.815	0.33
623.144	0.32
623.473	0.32
623.803	0.32
624.132	0.32
624.461	0.33
624.79	0.33
625.119	0.33
625.447	0.33
625.776	0.33
626.105	0.34
626.434	0.34
626.762	0.34
627.091	0.34
627.42	0.34
627.748	0.34
628.077	0.34
628.405	0.34
628.734	0.34
629.062	0.33
629.39	0.33
629.719	0.33
630.047	0.32
630.375	0.32
630.703	0.31
631.031	0.31
631.359	0.3
631.687	0.3
632.015	0.31
632.343	0.31
632.671	0.33
632.999	0.34
633.326	0.35
633.654	0.36
633.982	0.36
634.309	0.36
634.637	0.36
634.964	0.35
635.292	0.34
635.619	0.32
635.947	0.29
636.274	0.26
636.601	0.23
636.928	0.2
637.256	0.18
637.583	0.16
637.91	0.14
638.237	0.13
638.564	0.12
638.891	0.11
639.218	0.1
639.544	0.1
639.871	0.1
640.198	0.09
640.525	0.09
640.851	0.09
641.178	0.09
641.504	0.09
641.831	0.09
642.157	0.09
642.484	0.08
642.81	0.08
643.137	0.08
643.463	0.08
643.789	0.08
644.115	0.08
644.441	0.08
644.767	0.09
645.093	0.09
645.419	0.09
645.745	0.09
646.071	0.09
646.397	0.09
646.723	0.09
647.049	0.09
647.374	0.09
647.7	0.09
648.026	0.09
648.351	0.09
648.677	0.09
649.002	0.09
649.328	0.09
649.653	0.09
649.978	0.09
650.303	0.09
650.629	0.09
650.954	0.09
651.279	0.1
651.604	0.1
651.929	0.11
652.254	0.11
652.579	0.12
652.904	0.13
653.229	0.14
653.554	0.14
653.878	0.15
654.203	0.15
654.528	0.16
654.852	0.16
655.177	0.16
655.501	0.15
655.826	0.15
656.15	0.14
656.474	0.13
656.799	0.13
657.123	0.13
657.447	0.12
657.771	0.12
658.096	0.12
658.42	0.11
658.744	0.11
659.068	0.11
659.392	0.11
659.715	0.11
660.039	0.11
660.363	0.11
660.687	0.1
661.01	0.1
661.334	0.1
661.658	0.1
661.981	0.1
662.305	0.09
662.628	0.09
662.952	0.09
663.275	0.09
663.598	0.09
663.921	0.09
664.245	0.09
664.568	0.1
664.891	0.1
665.214	0.1
665.537	0.11
665.86	0.11
666.183	0.11
666.506	0.11
666.828	0.11
667.151	0.11
667.474	0.1
667.797	0.1
668.119	0.1
668.442	0.09
668.764	0.09
669.087	0.09
669.409	0.09
669.732	0.09
670.054	0.09
670.376	0.08
670.698	0.08
671.021	0.08
671.343	0.08
671.665	0.08
671.987	0.08
672.309	0.08
672.631	0.07
672.953	0.07
673.275	0.07
673.596	0.07
673.918	0.07
674.24	0.07
674.561	0.07
674.883	0.07
675.205	0.07
675.526	0.07
675.848	0.07
676.169	0.07
676.49	0.07
676.812	0.07
677.133	0.06
677.454	0.06
677.775	0.06
678.096	0.06
678.417	0.06
678.739	0.06
679.059	0.06
679.38	0.06
679.701	0.06
680.022	0.06
680.343	0.06
680.664	0.06
680.984	0.06
681.305	0.06
681.625	0.06
681.946	0.06
682.266	0.06
682.587	0.06
682.907	0.06
683.228	0.06
683.548	0.06
683.868	0.06
684.188	0.06
684.508	0.06
684.829	0.06
685.149	0.06
685.469	0.06
685.789	0.06
686.108	0.06
686.428	0.06
686.748	0.06
687.068	0.06
687.387	0.06
687.707	0.06
688.027	0.06
688.346	0.06
688.666	0.07
688.985	0.07
689.305	0.07
689.624	0.08
689.943	0.08
690.263	0.09
690.582	0.09
690.901	0.09
691.22	0.09
691.539	0.09
691.858	0.09
692.177	0.08
692.496	0.08
692.815	0.08
693.134	0.07
693.452	0.07
693.771	0.06
694.09	0.06
694.408	0.05
694.727	0.05
695.045	0.06
695.364	0.06
695.682	0.06
696.001	0.07
696.319	0.07
696.637	0.07
696.956	0.07
697.274	0.07
697.592	0.07
697.91	0.07
698.228	0.07
698.546	0.07
698.864	0.06
699.182	0.05
699.499	0.05
699.817	0.05
700.135	0.04
700.453	0.04
700.77	0.04
701.088	0.04
701.405	0.04
701.723	0.04
702.04	0.03
702.358	0.03
702.675	0.03
702.992	0.04
703.31	0.04
703.627	0.04
703.944	0.04
704.261	0.04
704.578	0.04
704.895	0.04
705.212	0.04
705.529	0.04
705.846	0.05
706.162	0.05
706.479	0.05
706.796	0.05
707.112	0.05
707.429	0.06
707.746	0.07
708.062	0.08
708.378	0.09
708.695	0.11
709.011	0.12
709.327	0.13
709.644	0.14
709.96	0.15
710.276	0.17
710.592	0.18
710.908	0.19
711.224	0.2
711.54	0.2
711.856	0.19
712.172	0.18
712.488	0.17
712.803	0.17
713.119	0.16
713.435	0.16
713.75	0.16
714.066	0.15
714.381	0.15
714.697	0.15
715.012	0.14
715.327	0.14
715.643	0.14
715.958	0.14
716.273	0.14
716.588	0.13
716.903	0.12
717.218	0.11
717.533	0.1
717.848	0.08
718.163	0.07
718.478	0.06
718.793	0.05
719.108	0.05
719.422	0.05
719.737	0.05
720.052	0.04
720.366	0.04
720.681	0.04
720.995	0.04
721.309	0.03
721.624	0.03
721.938	0.03
722.252	0.03
722.566	0.03
722.881	0.03
723.195	0.03
723.509	0.03
723.823	0.03
724.137	0.03
724.45	0.03
724.764	0.03
725.078	0.03
725.392	0.03
725.706	0.03
726.019	0.03
726.333	0.03
726.646	0.03
726.96	0.03
727.273	0.03
727.587	0.02
727.9	0.02
728.213	0.03
728.526	0.02
728.84	0.03
729.153	0.03
729.466	0.02
729.779	0.02
730.092	0.02
730.405	0.02
730.718	0.02
731.03	0.03
731.343	0.02
731.656	0.03
731.969	0.03
732.281	0.02
732.594	0.02
732.906	0.02
733.219	0.02
733.531	0.03
733.844	0.02
734.156	0.02
734.468	0.02
734.78	0.02
735.093	0.02
735.405	0.02
735.717	0.02
736.029	0.02
736.341	0.02
736.653	0.02
736.965	0.02
737.276	0.02
737.588	0.02
737.9	0.02
738.211	0.02
738.523	0.02
738.835	0.02
739.146	0.02
739.458	0.03
739.769	0.03
740.08	0.03
740.392	0.03
740.703	0.02
741.014	0.02
741.325	0.03
741.636	0.03
741.947	0.03
742.258	0.03
742.569	0.02
742.88	0.02
743.191	0.02
743.502	0.02
743.813	0.02
744.123	0.02
744.434	0.02
744.745	0.02
745.055	0.02
745.366	0.02
745.676	0.02
745.987	0.02
746.297	0.03
746.607	0.03
746.917	0.03
747.228	0.03
747.538	0.03
747.848	0.04
748.158	0.04
748.468	0.04
748.778	0.03
749.088	0.02
749.397	0.03
749.707	0.02
750.017	0.01
750.327	0.01
750.636	0
750.946	0
751.255	0
751.565	0
751.874	0
752.184	0
752.493	0
752.802	-0
753.111	0
753.421	0.01
753.73	0.01
754.039	0.01
754.348	0.01
754.657	0.01
754.966	0.01
755.274	0.02
755.583	0.02
755.892	0.02
756.201	0.02
756.509	0.02
756.818	0.02
757.127	0.02
757.435	0.02
757.743	0.02
758.052	0.02
758.36	0.01
758.668	0.02
758.977	0.02
759.285	0.02
759.593	0.02
759.901	0.01
760.209	0.02
760.517	0.02
760.825	0.02
761.133	0.02
761.441	0.02
761.749	0.02
762.056	0.02
762.364	0.02
762.672	0.03
762.979	0.03
763.287	0.03
763.594	0.02
763.902	0.03
764.209	0.03
764.516	0.03
764.823	0.03
765.131	0.04
765.438	0.03
765.745	0.03
766.052	0.02
766.359	0.03
766.666	0.04
766.973	0.03
767.28	0.03
767.587	0.03
767.893	0.03
768.2	0.03
768.507	0.02
768.813	0.02
769.12	0.02
769.426	0.02
769.733	0.01
770.039	0.01
770.345	0.01
770.652	0.01
770.958	0.02
771.264	0.02
771.57	0.02
771.876	0.02
772.182	0.02
772.488	0.02
772.794	0.01
773.1	0.01
773.406	0.01
773.712	-0
774.017	-0
774.323	-0.01
774.628	-0.01
774.934	-0.01
775.24	-0.02
775.545	-0.02
775.85	-0.01
776.156	-0
776.461	0
776.766	-0
777.071	0
777.377	-0
777.682	-0
777.987	0.01
778.292	0
778.597	0.01
778.901	0.01
779.206	0.01
779.511	0.01
779.816	0.01
780.12	0.02
780.425	0.03
780.73	0.03
781.034	0.03
781.339	0.03
781.643	0.04
781.947	0.04
782.252	0.03
782.556	0.02
782.86	0.02
783.164	0.01
783.468	0.02
783.772	0.03
784.076	0.03
784.38	0.03
784.684	0.04
784.988	0.03
785.292	0.04
785.595	0.04
785.899	0.04
786.203	0.05
786.506	0.03
786.81	0.03
787.113	0.02
787.417	0.02
787.72	0.01
788.023	-0
788.327	-0.01
788.63	-0.01
788.933	-0.01
789.236	0
789.539	0.02
789.842	0.03
790.145	0.02
790.448	0.02
790.751	0.04
791.054	0.04
791.356	0.04
791.659	0.04
791.962	0.03
792.264	0.03
792.567	0.02
792.869	-0
793.172	0.02
793.474	0.01
793.776	0.01
794.078	-0
794.381	0.01
794.683	0.01
794.985	0
795.287	0
795.589	0.01
795.891	0.01
796.193	0.02
796.495	0.01
796.796	0.02
797.098	0.02
797.4	0.02
797.701	0.02
798.003	0.03
798.304	0.02
798.606	0.04
798.907	0.03
799.209	0.03
799.51	0.01
799.811	0.01
800.112	0.01
800.414	-0.01
800.715	-0.02
801.016	-0.03
801.317	-0.04
801.618	-0.03
801.919	-0.04
802.219	-0.04
802.52	-0.05
802.821	-0.04
803.122	-0.04
803.422	-0.04
803.723	-0.03
804.023	-0.02
804.324	-0.02
804.624	-0.02
804.924	-0.01
805.225	0
805.525	0.01
805.825	0.02
806.125	0.03
806.425	0.04
806.725	0.04
807.025	0.05
807.325	0.04
807.625	0.05
807.925	0.05
808.225	0.05
808.525	0.04
808.824	0.04
809.124	0.03
809.423	0.03
809.723	0.02
810.022	0.01
810.322	0.02
810.621	0.02
810.92	0
811.22	-0.01
811.519	-0.02
811.818	-0.01
812.117	-0.01
812.416	-0.01
812.715	0.01
813.014	-0
813.313	-0.01
813.612	0.01
813.91	0.02
814.209	0.02
814.508	0.02
814.806	0.03
815.105	0.03
815.403	0.04
815.702	0.05
816	0.05
816.298	0.05
816.597	0.07
816.895	0.04
817.193	-0.01
817.491	0.01
817.789	0
818.087	0.01
818.385	-0
818.683	-0.04
818.981	-0.03
819.279	-0.06
819.577	-0.07
819.874	-0.06
820.172	-0.05
820.469	-0.03
820.767	-0.06
821.064	-0.05
821.362	-0.08
821.659	-0.06
821.957	-0.05
822.254	-0.04
822.551	-0.03
822.848	-0.01
823.145	-0.05
823.442	-0.05
823.739	-0.04
824.036	-0.01
824.333	-0.01
824.63	-0.01
824.927	-0.03
825.223	-0.03
825.52	-0.02
825.817	-0.04
826.113	-0.07
826.41	-0.06
826.706	-0.06
827.003	-0.04
827.299	-0.04
827.595	-0.04
827.892	-0.06
828.188	-0.03
828.484	-0.04
828.78	-0.06
829.076	-0.05
829.372	-0.03
829.668	-0.01
829.964	-0.01
830.26	-0.01
830.555	-0.01
830.851	0
831.147	0.03
831.442	0.01
831.738	0.02
832.033	0.02
832.329	0.01
832.624	0.01
832.919	0.02
833.215	0.06
833.51	0.06
833.805	0.07
834.1	0.05
834.395	0.07
834.69	0.09
834.985	0.11
835.28	0.1
835.575	0.14
835.87	0.15
836.164	0.09
836.459	0.03
836.754	0.03
837.048	0.01
837.343	0
837.637	-0.02
837.932	-0.06
838.226	-0.08
838.52	-0.07
838.814	-0.11
839.109	-0.11
839.403	-0.08
839.697	-0.09
839.991	-0.11
840.285	-0.1
840.579	-0.09
840.873	-0.09
841.166	-0.1
841.46	-0.1
841.754	-0.07
842.047	-0.05
842.341	-0.07
842.635	-0.06
842.928	-0.01
843.222	-0.02
843.515	-0.03
843.808	-0.01
844.101	0.02
844.395	-0.02
844.688	-0.06
844.981	-0.09
845.274	-0.12
845.567	-0.08
845.86	-0.09
846.153	-0.16
846.446	-0.16
846.738	-0.16
847.031	-0.19
847.324	-0.2
847.616	-0.18
847.909	-0.1
848.201	-0.05
848.494	-0.08
848.786	-0.19
849.079	-0.16
849.371	-0.1
849.663	-0.1
849.955	-0.15
850.247	-0.14
850.539	-0.15
850.831	-0.11
851.123	-0.19
851.415	-0.25
851.707	-0.14
851.999	-0.09
852.291	-0.06
852.582	-0.06
852.874	-0.08
853.166	-0.04
853.457	-0.01
853.749	-0.13
854.04	-0.15
854.331	-0.19
854.623	-0.16
854.914	-0.15
855.205	-0.1
855.496	-0.18
855.787	-0.24
856.078	-0.24
856.369	-0.18
856.66	-0.26
856.951	-0.12
857.242	0.03
857.533	0.04
857.823	0.04
858.114	-0.06
858.404	-0.04
858.695	-0.05
858.985	-0.01
859.276	0
859.566	-0.12
859.857	0.01
860.147	0.01
860.437	-0.09
860.727	-0.09
861.017	-0.12
861.307	-0.17
861.597	-0.23
861.887	-0.28
862.177	-0.17
862.467	-0.05
862.757	0.03
863.046	-0.08
863.336	-0.13
863.626	-0.23
863.915	-0.21
864.205	-0.13
864.494	-0.09
864.783	-0.27
865.073	-0.1
865.362	-0.2
865.651	-0.33
865.94	-0.29
866.229	-0.33
866.518	-0.32
866.807	-0.22
867.096	-0.12
867.385	-0.18
867.674	-0.13
867.963	0.12
868.252	0.07
868.54	-0.02
868.829	-0.06
869.117	-0.17
869.406	-0.12
869.694	-0.06
869.983	-0.12
870.271	-0.27
870.559	-0.3
