Data from AbsoluteIrradiance__1__17-11-28-659.txt Node

Date: Fri Jul 22 17:11:28 EDT 2022
User: enochs
Spectrometer: FLMS17410
Trigger mode: 0
Integration Time (sec): 1.545400E-1
Scans to average: 5
Electric dark correction enabled: true
Nonlinearity correction enabled: true
Boxcar width: 5
XAxis mode: Wavelengths
Number of Pixels in Spectrum: 2048
>>>>>Begin Spectral Data<<<<<
179.501	0
179.881	0
180.261	0
180.64	0
181.02	0
181.399	0
181.779	0
182.158	0
182.537	0
182.917	0
183.296	0
183.675	0
184.055	0
184.434	0
184.813	-0
185.192	-0
185.571	-0
185.95	-0
186.329	-0
186.708	-0
187.087	-0
187.466	-0
187.845	0
188.224	0
188.603	0
188.982	0
189.361	0
189.739	0
190.118	0
190.497	0
190.875	0
191.254	0
191.632	0
192.011	0
192.39	0
192.768	0
193.146	0
193.525	0
193.903	0
194.282	0
194.66	0
195.038	0
195.416	0
195.794	0
196.173	0
196.551	0
196.929	0
197.307	0
197.685	0
198.063	0
198.441	0
198.819	0
199.197	0
199.575	0
199.952	0
200.33	2.36
200.708	2.84
201.086	2.77
201.463	2.98
201.841	2.72
202.218	2.84
202.596	2.65
202.974	2.47
203.351	2.39
203.729	2.28
204.106	2.3
204.483	2.07
204.861	1.85
205.238	1.78
205.615	1.41
205.993	1.56
206.37	1.39
206.747	1.48
207.124	1.41
207.501	1.37
207.878	1.19
208.255	1.14
208.632	1.12
209.009	1.02
209.386	1.06
209.763	1.05
210.14	0.83
210.517	0.89
210.894	0.88
211.271	0.85
211.647	0.82
212.024	0.78
212.401	0.75
212.777	0.73
213.154	0.79
213.531	0.79
213.907	0.84
214.284	0.9
214.66	0.77
215.036	0.73
215.413	0.74
215.789	0.78
216.166	0.9
216.542	0.88
216.918	0.81
217.294	0.83
217.67	0.82
218.047	0.72
218.423	0.65
218.799	0.65
219.175	0.57
219.551	0.56
219.927	0.52
220.303	0.41
220.679	0.38
221.054	0.42
221.43	0.39
221.806	0.4
222.182	0.43
222.558	0.47
222.933	0.52
223.309	0.55
223.685	0.52
224.06	0.5
224.436	0.53
224.811	0.54
225.187	0.49
225.562	0.46
225.938	0.47
226.313	0.49
226.688	0.49
227.064	0.44
227.439	0.46
227.814	0.46
228.189	0.44
228.564	0.41
228.94	0.41
229.315	0.39
229.69	0.39
230.065	0.34
230.44	0.32
230.815	0.29
231.19	0.29
231.564	0.27
231.939	0.26
232.314	0.25
232.689	0.26
233.064	0.24
233.438	0.26
233.813	0.28
234.188	0.28
234.562	0.26
234.937	0.26
235.311	0.26
235.686	0.25
236.06	0.21
236.435	0.23
236.809	0.23
237.183	0.22
237.558	0.21
237.932	0.21
238.306	0.2
238.68	0.2
239.055	0.2
239.429	0.2
239.803	0.2
240.177	0.22
240.551	0.21
240.925	0.19
241.299	0.18
241.673	0.17
242.047	0.15
242.42	0.15
242.794	0.14
243.168	0.15
243.542	0.15
243.915	0.16
244.289	0.15
244.663	0.15
245.036	0.15
245.41	0.14
245.783	0.14
246.157	0.14
246.53	0.15
246.904	0.14
247.277	0.12
247.651	0.12
248.024	0.12
248.397	0.12
248.77	0.11
249.144	0.11
249.517	0.11
249.89	0.12
250.263	0.12
250.636	0.12
251.009	0.12
251.382	0.12
251.755	0.12
252.128	0.11
252.501	0.11
252.874	0.11
253.246	0.11
253.619	0.11
253.992	0.11
254.365	0.09
254.737	0.09
255.11	0.09
255.483	0.09
255.855	0.09
256.228	0.09
256.6	0.08
256.973	0.08
257.345	0.07
257.717	0.07
258.09	0.07
258.462	0.07
258.834	0.07
259.206	0.07
259.579	0.07
259.951	0.06
260.323	0.06
260.695	0.07
261.067	0.07
261.439	0.07
261.811	0.07
262.183	0.08
262.555	0.08
262.927	0.08
263.299	0.07
263.67	0.07
264.042	0.07
264.414	0.07
264.786	0.06
265.157	0.06
265.529	0.06
265.9	0.06
266.272	0.06
266.643	0.06
267.015	0.06
267.386	0.06
267.758	0.06
268.129	0.06
268.5	0.06
268.872	0.07
269.243	0.06
269.614	0.06
269.985	0.07
270.357	0.07
270.728	0.07
271.099	0.06
271.47	0.07
271.841	0.07
272.212	0.06
272.583	0.07
272.953	0.06
273.324	0.07
273.695	0.07
274.066	0.06
274.437	0.07
274.807	0.06
275.178	0.06
275.549	0.05
275.919	0.05
276.29	0.05
276.66	0.05
277.031	0.05
277.401	0.05
277.772	0.05
278.142	0.05
278.512	0.04
278.883	0.05
279.253	0.05
279.623	0.05
279.993	0.05
280.364	0.05
280.734	0.05
281.104	0.05
281.474	0.05
281.844	0.05
282.214	0.04
282.584	0.05
282.954	0.05
283.323	0.05
283.693	0.05
284.063	0.05
284.433	0.05
284.802	0.05
285.172	0.05
285.542	0.05
285.911	0.04
286.281	0.05
286.65	0.05
287.02	0.04
287.389	0.05
287.759	0.05
288.128	0.05
288.498	0.05
288.867	0.04
289.236	0.04
289.605	0.05
289.975	0.05
290.344	0.05
290.713	0.05
291.082	0.05
291.451	0.05
291.82	0.05
292.189	0.05
292.558	0.05
292.927	0.05
293.296	0.05
293.664	0.04
294.033	0.04
294.402	0.04
294.771	0.04
295.139	0.04
295.508	0.04
295.877	0.04
296.245	0.04
296.614	0.04
296.982	0.05
297.351	0.04
297.719	0.04
298.087	0.04
298.456	0.04
298.824	0.04
299.192	0.04
299.561	0.04
299.929	0.03
300.297	0.04
300.665	0.03
301.033	0.03
301.401	0.03
301.769	0.03
302.137	0.03
302.505	0.04
302.873	0.04
303.241	0.04
303.609	0.03
303.976	0.03
304.344	0.03
304.712	0.03
305.079	0.03
305.447	0.03
305.815	0.03
306.182	0.03
306.55	0.03
306.917	0.03
307.285	0.03
307.652	0.03
308.019	0.03
308.387	0.03
308.754	0.03
309.121	0.03
309.489	0.03
309.856	0.03
310.223	0.03
310.59	0.03
310.957	0.03
311.324	0.03
311.691	0.04
312.058	0.04
312.425	0.04
312.792	0.04
313.159	0.04
313.525	0.04
313.892	0.04
314.259	0.04
314.626	0.04
314.992	0.04
315.359	0.04
315.725	0.03
316.092	0.03
316.459	0.03
316.825	0.03
317.191	0.03
317.558	0.03
317.924	0.03
318.29	0.03
318.657	0.03
319.023	0.02
319.389	0.03
319.755	0.03
320.121	0.03
320.488	0.03
320.854	0.03
321.22	0.03
321.586	0.03
321.952	0.03
322.317	0.03
322.683	0.03
323.049	0.03
323.415	0.03
323.781	0.03
324.146	0.02
324.512	0.03
324.878	0.03
325.243	0.03
325.609	0.03
325.974	0.03
326.34	0.03
326.705	0.03
327.071	0.03
327.436	0.03
327.801	0.03
328.167	0.03
328.532	0.03
328.897	0.03
329.262	0.03
329.627	0.03
329.992	0.03
330.357	0.03
330.722	0.03
331.087	0.03
331.452	0.03
331.817	0.02
332.182	0.03
332.547	0.03
332.912	0.03
333.277	0.03
333.641	0.02
334.006	0.02
334.371	0.03
334.735	0.02
335.1	0.03
335.464	0.03
335.829	0.03
336.193	0.03
336.558	0.03
336.922	0.03
337.286	0.03
337.651	0.03
338.015	0.03
338.379	0.03
338.743	0.03
339.107	0.03
339.471	0.03
339.836	0.03
340.2	0.03
340.564	0.03
340.927	0.03
341.291	0.02
341.655	0.02
342.019	0.02
342.383	0.02
342.747	0.02
343.11	0.02
343.474	0.03
343.838	0.03
344.201	0.02
344.565	0.02
344.928	0.02
345.292	0.02
345.655	0.03
346.019	0.02
346.382	0.02
346.745	0.02
347.109	0.02
347.472	0.02
347.835	0.02
348.198	0.02
348.561	0.02
348.925	0.02
349.288	0.03
349.651	0.02
350.014	0.02
350.377	0.03
350.739	0.03
351.102	0.03
351.465	0.03
351.828	0.03
352.191	0.03
352.553	0.03
352.916	0.03
353.279	0.02
353.641	0.02
354.004	0.02
354.366	0.02
354.729	0.02
355.091	0.02
355.454	0.02
355.816	0.03
356.178	0.03
356.541	0.03
356.903	0.03
357.265	0.03
357.627	0.03
357.989	0.03
358.351	0.03
358.714	0.03
359.076	0.03
359.437	0.03
359.799	0.03
360.161	0.02
360.523	0.02
360.885	0.02
361.247	0.02
361.608	0.02
361.97	0.02
362.332	0.03
362.693	0.02
363.055	0.02
363.417	0.02
363.778	0.03
364.14	0.03
364.501	0.03
364.862	0.03
365.224	0.03
365.585	0.03
365.946	0.03
366.307	0.03
366.669	0.03
367.03	0.03
367.391	0.03
367.752	0.03
368.113	0.03
368.474	0.03
368.835	0.03
369.196	0.03
369.557	0.04
369.918	0.04
370.278	0.03
370.639	0.03
371	0.03
371.361	0.03
371.721	0.04
372.082	0.04
372.442	0.04
372.803	0.03
373.163	0.04
373.524	0.04
373.884	0.04
374.245	0.04
374.605	0.04
374.965	0.04
375.325	0.04
375.686	0.04
376.046	0.04
376.406	0.04
376.766	0.04
377.126	0.04
377.486	0.04
377.846	0.04
378.206	0.04
378.566	0.04
378.926	0.04
379.285	0.05
379.645	0.05
380.005	0.05
380.365	0.05
380.724	0.06
381.084	0.06
381.443	0.06
381.803	0.06
382.163	0.07
382.522	0.07
382.881	0.08
383.241	0.09
383.6	0.1
383.959	0.11
384.319	0.12
384.678	0.13
385.037	0.14
385.396	0.15
385.755	0.17
386.114	0.19
386.473	0.21
386.832	0.23
387.191	0.26
387.55	0.29
387.909	0.31
388.268	0.35
388.627	0.38
388.985	0.42
389.344	0.47
389.703	0.52
390.061	0.58
390.42	0.64
390.778	0.7
391.137	0.78
391.495	0.85
391.854	0.94
392.212	1.03
392.57	1.13
392.929	1.23
393.287	1.34
393.645	1.46
394.003	1.58
394.362	1.72
394.72	1.87
395.078	2.02
395.436	2.19
395.794	2.37
396.152	2.56
396.51	2.75
396.867	2.96
397.225	3.18
397.583	3.41
397.941	3.65
398.298	3.9
398.656	4.15
399.014	4.42
399.371	4.69
399.729	4.97
400.086	5.27
400.444	5.57
400.801	5.88
401.159	6.21
401.516	6.53
401.873	6.86
402.23	7.2
402.588	7.55
402.945	7.89
403.302	8.24
403.659	8.59
404.016	8.94
404.373	9.29
404.73	9.63
405.087	9.97
405.444	10.31
405.801	10.65
406.158	10.99
406.514	11.32
406.871	11.66
407.228	11.97
407.584	12.25
407.941	12.51
408.298	12.75
408.654	12.96
409.011	13.16
409.367	13.33
409.723	13.48
410.08	13.58
410.436	13.66
410.792	13.71
411.149	13.74
411.505	13.76
411.861	13.76
412.217	13.75
412.573	13.71
412.929	13.65
413.285	13.56
413.641	13.46
413.997	13.35
414.353	13.21
414.709	13.05
415.065	12.87
415.42	12.68
415.776	12.47
416.132	12.23
416.487	11.99
416.843	11.74
417.199	11.47
417.554	11.18
417.91	10.88
418.265	10.58
418.62	10.27
418.976	9.94
419.331	9.61
419.686	9.28
420.042	8.95
420.397	8.61
420.752	8.28
421.107	7.95
421.462	7.61
421.817	7.29
422.172	6.97
422.527	6.66
422.882	6.37
423.237	6.08
423.592	5.81
423.946	5.55
424.301	5.3
424.656	5.06
425.01	4.83
425.365	4.62
425.72	4.42
426.074	4.23
426.429	4.05
426.783	3.87
427.137	3.7
427.492	3.55
427.846	3.4
428.2	3.25
428.555	3.12
428.909	2.99
429.263	2.86
429.617	2.75
429.971	2.64
430.325	2.53
430.679	2.43
431.033	2.33
431.387	2.23
431.741	2.13
432.095	2.05
432.449	1.96
432.802	1.88
433.156	1.8
433.51	1.73
433.863	1.65
434.217	1.58
434.571	1.52
434.924	1.46
435.278	1.39
435.631	1.34
435.984	1.29
436.338	1.24
436.691	1.21
437.044	1.22
437.397	1.28
437.751	1.37
438.104	1.45
438.457	1.49
438.81	1.5
439.163	1.5
439.516	1.5
439.869	1.48
440.222	1.46
440.575	1.42
440.927	1.35
441.28	1.23
441.633	1.09
441.986	0.96
442.338	0.87
442.691	0.81
443.043	0.77
443.396	0.74
443.748	0.71
444.101	0.7
444.453	0.69
444.805	0.68
445.158	0.68
445.51	0.67
445.862	0.67
446.214	0.66
446.567	0.66
446.919	0.67
447.271	0.67
447.623	0.67
447.975	0.67
448.327	0.67
448.679	0.68
449.03	0.68
449.382	0.69
449.734	0.69
450.086	0.69
450.437	0.7
450.789	0.7
451.141	0.7
451.492	0.71
451.844	0.71
452.195	0.71
452.547	0.71
452.898	0.71
453.249	0.7
453.601	0.7
453.952	0.7
454.303	0.69
454.654	0.69
455.005	0.68
455.357	0.67
455.708	0.66
456.059	0.65
456.41	0.63
456.76	0.62
457.111	0.61
457.462	0.59
457.813	0.58
458.164	0.56
458.515	0.54
458.865	0.53
459.216	0.51
459.566	0.49
459.917	0.48
460.267	0.46
460.618	0.45
460.968	0.44
461.319	0.42
461.669	0.41
462.019	0.4
462.37	0.39
462.72	0.38
463.07	0.37
463.42	0.36
463.77	0.35
464.12	0.34
464.47	0.33
464.82	0.33
465.17	0.32
465.52	0.31
465.87	0.31
466.22	0.3
466.569	0.29
466.919	0.29
467.269	0.28
467.618	0.28
467.968	0.28
468.318	0.27
468.667	0.27
469.017	0.26
469.366	0.26
469.715	0.25
470.065	0.25
470.414	0.25
470.763	0.24
471.112	0.24
471.462	0.24
471.811	0.23
472.16	0.23
472.509	0.22
472.858	0.22
473.207	0.22
473.556	0.21
473.905	0.21
474.253	0.21
474.602	0.2
474.951	0.2
475.3	0.2
475.648	0.2
475.997	0.2
476.345	0.2
476.694	0.19
477.042	0.19
477.391	0.19
477.739	0.19
478.088	0.18
478.436	0.18
478.784	0.18
479.132	0.18
479.481	0.18
479.829	0.18
480.177	0.17
480.525	0.17
480.873	0.17
481.221	0.17
481.569	0.17
481.917	0.17
482.265	0.17
482.612	0.17
482.96	0.17
483.308	0.17
483.656	0.17
484.003	0.17
484.351	0.18
484.698	0.18
485.046	0.18
485.393	0.19
485.741	0.2
486.088	0.21
486.435	0.22
486.783	0.23
487.13	0.25
487.477	0.26
487.824	0.28
488.171	0.3
488.518	0.32
488.866	0.34
489.212	0.36
489.559	0.37
489.906	0.38
490.253	0.39
490.6	0.4
490.947	0.41
491.294	0.41
491.64	0.4
491.987	0.4
492.333	0.39
492.68	0.38
493.027	0.37
493.373	0.36
493.719	0.35
494.066	0.34
494.412	0.33
494.759	0.32
495.105	0.31
495.451	0.3
495.797	0.29
496.143	0.28
496.489	0.27
496.835	0.27
497.181	0.26
497.527	0.25
497.873	0.24
498.219	0.23
498.565	0.23
498.911	0.22
499.257	0.21
499.602	0.21
499.948	0.2
500.294	0.19
500.639	0.19
500.985	0.18
501.33	0.17
501.676	0.17
502.021	0.16
502.366	0.16
502.712	0.15
503.057	0.14
503.402	0.14
503.747	0.13
504.092	0.13
504.438	0.12
504.783	0.11
505.128	0.11
505.473	0.11
505.817	0.1
506.162	0.1
506.507	0.09
506.852	0.09
507.197	0.09
507.541	0.09
507.886	0.08
508.231	0.08
508.575	0.08
508.92	0.08
509.264	0.07
509.609	0.07
509.953	0.07
510.297	0.07
510.642	0.07
510.986	0.07
511.33	0.07
511.674	0.06
512.019	0.06
512.363	0.06
512.707	0.06
513.051	0.06
513.395	0.06
513.739	0.06
514.083	0.06
514.426	0.06
514.77	0.06
515.114	0.06
515.458	0.06
515.801	0.06
516.145	0.06
516.488	0.06
516.832	0.06
517.175	0.06
517.519	0.06
517.862	0.06
518.206	0.06
518.549	0.06
518.892	0.06
519.235	0.06
519.579	0.06
519.922	0.06
520.265	0.06
520.608	0.06
520.951	0.06
521.294	0.06
521.637	0.06
521.98	0.06
522.323	0.06
522.665	0.06
523.008	0.06
523.351	0.06
523.693	0.06
524.036	0.06
524.379	0.06
524.721	0.06
525.064	0.06
525.406	0.06
525.748	0.06
526.091	0.06
526.433	0.06
526.775	0.06
527.118	0.06
527.46	0.06
527.802	0.06
528.144	0.06
528.486	0.06
528.828	0.06
529.17	0.06
529.512	0.06
529.854	0.06
530.195	0.06
530.537	0.06
530.879	0.06
531.221	0.06
531.562	0.06
531.904	0.06
532.245	0.06
532.587	0.06
532.928	0.06
533.27	0.06
533.611	0.06
533.953	0.06
534.294	0.06
534.635	0.07
534.976	0.07
535.317	0.07
535.659	0.08
536	0.08
536.341	0.08
536.682	0.08
537.023	0.09
537.363	0.09
537.704	0.1
538.045	0.1
538.386	0.1
538.727	0.11
539.067	0.12
539.408	0.13
539.748	0.14
540.089	0.16
540.429	0.17
540.77	0.19
541.11	0.22
541.451	0.25
541.791	0.29
542.131	0.33
542.471	0.39
542.812	0.47
543.152	0.57
543.492	0.69
543.832	0.81
544.172	0.94
544.512	1.05
544.852	1.16
545.192	1.26
545.531	1.36
545.871	1.44
546.211	1.5
546.551	1.54
546.89	1.56
547.23	1.6
547.57	1.66
547.909	1.74
548.248	1.81
548.588	1.84
548.927	1.85
549.267	1.84
549.606	1.82
549.945	1.79
550.284	1.75
550.623	1.7
550.963	1.6
551.302	1.46
551.641	1.3
551.98	1.15
552.319	1.03
552.657	0.93
552.996	0.85
553.335	0.77
553.674	0.7
554.013	0.64
554.351	0.59
554.69	0.54
555.028	0.5
555.367	0.46
555.705	0.42
556.044	0.39
556.382	0.36
556.721	0.33
557.059	0.3
557.397	0.28
557.735	0.25
558.074	0.23
558.412	0.21
558.75	0.19
559.088	0.17
559.426	0.16
559.764	0.15
560.102	0.14
560.439	0.13
560.777	0.12
561.115	0.11
561.453	0.11
561.79	0.1
562.128	0.1
562.466	0.1
562.803	0.09
563.141	0.09
563.478	0.09
563.816	0.08
564.153	0.08
564.49	0.08
564.827	0.08
565.165	0.08
565.502	0.08
565.839	0.08
566.176	0.08
566.513	0.07
566.85	0.07
567.187	0.07
567.524	0.07
567.861	0.07
568.198	0.07
568.534	0.07
568.871	0.07
569.208	0.06
569.544	0.06
569.881	0.06
570.218	0.06
570.554	0.06
570.891	0.06
571.227	0.06
571.563	0.06
571.9	0.06
572.236	0.06
572.572	0.06
572.908	0.06
573.244	0.06
573.581	0.06
573.917	0.06
574.253	0.06
574.588	0.06
574.924	0.06
575.26	0.06
575.596	0.06
575.932	0.06
576.268	0.06
576.603	0.06
576.939	0.06
577.274	0.06
577.61	0.06
577.946	0.07
578.281	0.08
578.616	0.1
578.952	0.12
579.287	0.14
579.622	0.15
579.958	0.17
580.293	0.19
580.628	0.21
580.963	0.23
581.298	0.26
581.633	0.27
581.968	0.28
582.303	0.29
582.638	0.29
582.973	0.29
583.307	0.29
583.642	0.3
583.977	0.3
584.311	0.31
584.646	0.31
584.98	0.31
585.315	0.32
585.649	0.32
585.984	0.33
586.318	0.34
586.652	0.35
586.987	0.36
587.321	0.37
587.655	0.37
587.989	0.37
588.323	0.38
588.657	0.39
588.991	0.39
589.325	0.4
589.659	0.41
589.993	0.41
590.327	0.41
590.661	0.41
590.994	0.41
591.328	0.4
591.662	0.4
591.995	0.38
592.329	0.37
592.662	0.35
592.996	0.33
593.329	0.31
593.662	0.29
593.996	0.28
594.329	0.28
594.662	0.29
594.995	0.29
595.328	0.3
595.661	0.31
595.994	0.31
596.327	0.31
596.66	0.31
596.993	0.3
597.326	0.3
597.659	0.29
597.992	0.28
598.324	0.26
598.657	0.24
598.99	0.22
599.322	0.21
599.655	0.19
599.987	0.19
600.32	0.18
600.652	0.18
600.984	0.18
601.317	0.19
601.649	0.19
601.981	0.2
602.313	0.2
602.645	0.21
602.977	0.21
603.309	0.21
603.641	0.21
603.973	0.2
604.305	0.2
604.637	0.19
604.969	0.18
605.3	0.17
605.632	0.16
605.964	0.15
606.295	0.14
606.627	0.14
606.958	0.13
607.29	0.13
607.621	0.13
607.952	0.13
608.284	0.13
608.615	0.13
608.946	0.14
609.277	0.14
609.609	0.15
609.94	0.16
610.271	0.17
610.602	0.18
610.933	0.2
611.263	0.23
611.594	0.27
611.925	0.33
612.256	0.43
612.587	0.59
612.917	0.8
613.248	1.03
613.578	1.24
613.909	1.43
614.239	1.59
614.57	1.73
614.9	1.84
615.23	1.92
615.561	1.97
615.891	1.96
616.221	1.89
616.551	1.75
616.881	1.58
617.211	1.42
617.541	1.27
617.871	1.14
618.201	1.03
618.531	0.92
618.861	0.83
619.191	0.74
619.52	0.67
619.85	0.6
620.18	0.54
620.509	0.48
620.839	0.44
621.168	0.4
621.498	0.37
621.827	0.35
622.157	0.33
622.486	0.32
622.815	0.32
623.144	0.31
623.473	0.31
623.803	0.31
624.132	0.31
624.461	0.31
624.79	0.32
625.119	0.32
625.447	0.32
625.776	0.32
626.105	0.32
626.434	0.32
626.762	0.32
627.091	0.32
627.42	0.32
627.748	0.32
628.077	0.32
628.405	0.32
628.734	0.32
629.062	0.32
629.39	0.31
629.719	0.31
630.047	0.31
630.375	0.3
630.703	0.29
631.031	0.29
631.359	0.29
631.687	0.29
632.015	0.29
632.343	0.3
632.671	0.31
632.999	0.32
633.326	0.33
633.654	0.34
633.982	0.35
634.309	0.35
634.637	0.34
634.964	0.33
635.292	0.32
635.619	0.3
635.947	0.28
636.274	0.25
636.601	0.22
636.928	0.19
637.256	0.17
637.583	0.15
637.91	0.13
638.237	0.12
638.564	0.11
638.891	0.1
639.218	0.1
639.544	0.09
639.871	0.09
640.198	0.09
640.525	0.09
640.851	0.09
641.178	0.08
641.504	0.08
641.831	0.08
642.157	0.08
642.484	0.08
642.81	0.08
643.137	0.08
643.463	0.08
643.789	0.08
644.115	0.08
644.441	0.08
644.767	0.08
645.093	0.08
645.419	0.08
645.745	0.08
646.071	0.08
646.397	0.08
646.723	0.09
647.049	0.09
647.374	0.09
647.7	0.09
648.026	0.09
648.351	0.09
648.677	0.09
649.002	0.09
649.328	0.09
649.653	0.09
649.978	0.09
650.303	0.09
650.629	0.09
650.954	0.09
651.279	0.1
651.604	0.1
651.929	0.1
652.254	0.11
652.579	0.12
652.904	0.13
653.229	0.13
653.554	0.14
653.878	0.14
654.203	0.14
654.528	0.15
654.852	0.15
655.177	0.15
655.501	0.15
655.826	0.14
656.15	0.13
656.474	0.13
656.799	0.13
657.123	0.12
657.447	0.12
657.771	0.12
658.096	0.11
658.42	0.11
658.744	0.11
659.068	0.1
659.392	0.1
659.715	0.1
660.039	0.1
660.363	0.1
660.687	0.1
661.01	0.1
661.334	0.09
661.658	0.09
661.981	0.09
662.305	0.09
662.628	0.09
662.952	0.09
663.275	0.09
663.598	0.09
663.921	0.09
664.245	0.09
664.568	0.09
664.891	0.1
665.214	0.1
665.537	0.1
665.86	0.1
666.183	0.11
666.506	0.11
666.828	0.11
667.151	0.1
667.474	0.1
667.797	0.1
668.119	0.09
668.442	0.09
668.764	0.09
669.087	0.08
669.409	0.08
669.732	0.08
670.054	0.08
670.376	0.08
670.698	0.08
671.021	0.08
671.343	0.07
671.665	0.07
671.987	0.07
672.309	0.07
672.631	0.07
672.953	0.07
673.275	0.07
673.596	0.07
673.918	0.07
674.24	0.07
674.561	0.06
674.883	0.06
675.205	0.06
675.526	0.06
675.848	0.06
676.169	0.06
676.49	0.06
676.812	0.06
677.133	0.06
677.454	0.06
677.775	0.06
678.096	0.06
678.417	0.06
678.739	0.06
679.059	0.06
679.38	0.06
679.701	0.06
680.022	0.06
680.343	0.06
680.664	0.06
680.984	0.06
681.305	0.06
681.625	0.06
681.946	0.06
682.266	0.06
682.587	0.06
682.907	0.06
683.228	0.06
683.548	0.06
683.868	0.06
684.188	0.06
684.508	0.06
684.829	0.06
685.149	0.06
685.469	0.06
685.789	0.06
686.108	0.06
686.428	0.06
686.748	0.06
687.068	0.06
687.387	0.06
687.707	0.06
688.027	0.06
688.346	0.06
688.666	0.06
688.985	0.07
689.305	0.07
689.624	0.07
689.943	0.08
690.263	0.08
690.582	0.09
690.901	0.09
691.22	0.09
691.539	0.09
691.858	0.08
692.177	0.08
692.496	0.07
692.815	0.07
693.134	0.07
693.452	0.06
693.771	0.06
694.09	0.05
694.408	0.05
694.727	0.05
695.045	0.05
695.364	0.05
695.682	0.06
696.001	0.06
696.319	0.06
696.637	0.06
696.956	0.06
697.274	0.06
697.592	0.06
697.91	0.06
698.228	0.06
698.546	0.06
698.864	0.05
699.182	0.05
699.499	0.05
699.817	0.05
700.135	0.04
700.453	0.04
700.77	0.04
701.088	0.04
701.405	0.04
701.723	0.04
702.04	0.04
702.358	0.04
702.675	0.04
702.992	0.04
703.31	0.04
703.627	0.04
703.944	0.04
704.261	0.04
704.578	0.03
704.895	0.03
705.212	0.03
705.529	0.04
705.846	0.04
706.162	0.04
706.479	0.04
706.796	0.05
707.112	0.05
707.429	0.06
707.746	0.07
708.062	0.08
708.378	0.09
708.695	0.11
709.011	0.12
709.327	0.13
709.644	0.14
709.96	0.15
710.276	0.16
710.592	0.17
710.908	0.18
711.224	0.19
711.54	0.19
711.856	0.19
712.172	0.18
712.488	0.17
712.803	0.16
713.119	0.16
713.435	0.16
713.75	0.15
714.066	0.15
714.381	0.14
714.697	0.14
715.012	0.14
715.327	0.14
715.643	0.14
715.958	0.14
716.273	0.14
716.588	0.13
716.903	0.12
717.218	0.11
717.533	0.09
717.848	0.08
718.163	0.07
718.478	0.06
718.793	0.05
719.108	0.05
719.422	0.05
719.737	0.05
720.052	0.04
720.366	0.05
720.681	0.05
720.995	0.05
721.309	0.05
721.624	0.04
721.938	0.04
722.252	0.04
722.566	0.04
722.881	0.04
723.195	0.04
723.509	0.04
723.823	0.04
724.137	0.04
724.45	0.04
724.764	0.04
725.078	0.04
725.392	0.04
725.706	0.04
726.019	0.04
726.333	0.04
726.646	0.04
726.96	0.04
727.273	0.04
727.587	0.04
727.9	0.03
728.213	0.04
728.526	0.03
728.84	0.04
729.153	0.03
729.466	0.03
729.779	0.03
730.092	0.02
730.405	0.02
730.718	0.03
731.03	0.03
731.343	0.03
731.656	0.03
731.969	0.03
732.281	0.03
732.594	0.03
732.906	0.04
733.219	0.04
733.531	0.04
733.844	0.04
734.156	0.04
734.468	0.04
734.78	0.04
735.093	0.04
735.405	0.03
735.717	0.03
736.029	0.03
736.341	0.02
736.653	0.02
736.965	0.02
737.276	0.02
737.588	0.02
737.9	0.02
738.211	0.02
738.523	0.03
738.835	0.03
739.146	0.03
739.458	0.03
739.769	0.03
740.08	0.03
740.392	0.03
740.703	0.03
741.014	0.03
741.325	0.03
741.636	0.02
741.947	0.02
742.258	0.02
742.569	0.02
742.88	0.02
743.191	0.02
743.502	0.02
743.813	0.02
744.123	0.02
744.434	0.02
744.745	0.02
745.055	0.02
745.366	0.02
745.676	0.02
745.987	0.03
746.297	0.03
746.607	0.03
746.917	0.03
747.228	0.03
747.538	0.03
747.848	0.03
748.158	0.03
748.468	0.04
748.778	0.03
749.088	0.03
749.397	0.03
749.707	0.03
750.017	0.03
750.327	0.03
750.636	0.02
750.946	0.02
751.255	0.02
751.565	0.02
751.874	0.02
752.184	0.02
752.493	0.02
752.802	0.02
753.111	0.02
753.421	0.02
753.73	0.02
754.039	0.03
754.348	0.03
754.657	0.03
754.966	0.02
755.274	0.02
755.583	0.03
755.892	0.03
756.201	0.03
756.509	0.03
756.818	0.03
757.127	0.03
757.435	0.03
757.743	0.04
758.052	0.04
758.36	0.04
758.668	0.05
758.977	0.05
759.285	0.05
759.593	0.05
759.901	0.05
760.209	0.05
760.517	0.04
760.825	0.05
761.133	0.04
761.441	0.04
761.749	0.05
762.056	0.04
762.364	0.04
762.672	0.04
762.979	0.04
763.287	0.04
763.594	0.04
763.902	0.04
764.209	0.04
764.516	0.05
764.823	0.05
765.131	0.05
765.438	0.05
765.745	0.05
766.052	0.05
766.359	0.05
766.666	0.05
766.973	0.05
767.28	0.05
767.587	0.04
767.893	0.04
768.2	0.04
768.507	0.04
768.813	0.04
769.12	0.04
769.426	0.04
769.733	0.04
770.039	0.04
770.345	0.04
770.652	0.04
770.958	0.04
771.264	0.04
771.57	0.03
771.876	0.03
772.182	0.03
772.488	0.04
772.794	0.03
773.1	0.03
773.406	0.03
773.712	0.02
774.017	0.02
774.323	0.02
774.628	0.02
774.934	0.02
775.24	0.01
775.545	0.02
775.85	0.02
776.156	0.03
776.461	0.04
776.766	0.04
777.071	0.05
777.377	0.04
777.682	0.03
777.987	0.04
778.292	0.05
778.597	0.06
778.901	0.06
779.206	0.06
779.511	0.06
779.816	0.05
780.12	0.05
780.425	0.06
780.73	0.06
781.034	0.06
781.339	0.06
781.643	0.07
781.947	0.05
782.252	0.05
782.556	0.05
782.86	0.05
783.164	0.06
783.468	0.05
783.772	0.05
784.076	0.05
784.38	0.07
784.684	0.07
784.988	0.06
785.292	0.07
785.595	0.07
785.899	0.08
786.203	0.09
786.506	0.06
786.81	0.06
787.113	0.06
787.417	0.07
787.72	0.08
788.023	0.08
788.327	0.08
788.63	0.08
788.933	0.1
789.236	0.1
789.539	0.1
789.842	0.11
790.145	0.11
790.448	0.11
790.751	0.11
791.054	0.09
791.356	0.09
791.659	0.09
791.962	0.08
792.264	0.07
792.567	0.07
792.869	0.05
793.172	0.06
793.474	0.05
793.776	0.05
794.078	0.04
794.381	0.04
794.683	0.04
794.985	0.04
795.287	0.04
795.589	0.04
795.891	0.04
796.193	0.05
796.495	0.04
796.796	0.05
797.098	0.07
797.4	0.06
797.701	0.06
798.003	0.07
798.304	0.07
798.606	0.08
798.907	0.09
799.209	0.09
799.51	0.08
799.811	0.09
800.112	0.07
800.414	0.05
800.715	0.05
801.016	0.05
801.317	0.05
801.618	0.05
801.919	0.04
802.219	0.03
802.52	0.03
802.821	0.04
803.122	0.04
803.422	0.06
803.723	0.07
804.023	0.07
804.324	0.08
804.624	0.08
804.924	0.08
805.225	0.08
805.525	0.1
805.825	0.11
806.125	0.11
806.425	0.11
806.725	0.11
807.025	0.11
807.325	0.11
807.625	0.1
807.925	0.11
808.225	0.11
808.525	0.09
808.824	0.08
809.124	0.08
809.423	0.09
809.723	0.09
810.022	0.09
810.322	0.11
810.621	0.1
810.92	0.1
811.22	0.09
811.519	0.08
811.818	0.09
812.117	0.08
812.416	0.08
812.715	0.08
813.014	0.07
813.313	0.07
813.612	0.06
813.91	0.08
814.209	0.08
814.508	0.1
814.806	0.11
815.105	0.11
815.403	0.12
815.702	0.14
816	0.14
816.298	0.14
816.597	0.15
816.895	0.15
817.193	0.12
817.491	0.12
817.789	0.11
818.087	0.14
818.385	0.14
818.683	0.13
818.981	0.13
819.279	0.11
819.577	0.11
819.874	0.11
820.172	0.12
820.469	0.15
820.767	0.13
821.064	0.15
821.362	0.12
821.659	0.14
821.957	0.16
822.254	0.15
822.551	0.16
822.848	0.16
823.145	0.15
823.442	0.15
823.739	0.14
824.036	0.16
824.333	0.15
824.63	0.14
824.927	0.11
825.223	0.11
825.52	0.14
825.817	0.11
826.113	0.08
826.41	0.1
826.706	0.09
827.003	0.1
827.299	0.09
827.595	0.1
827.892	0.09
828.188	0.12
828.484	0.11
828.78	0.09
829.076	0.13
829.372	0.17
829.668	0.19
829.964	0.18
830.26	0.17
830.555	0.21
830.851	0.22
831.147	0.24
831.442	0.24
831.738	0.24
832.033	0.25
832.329	0.24
832.624	0.26
832.919	0.25
833.215	0.31
833.51	0.33
833.805	0.32
834.1	0.32
834.395	0.33
834.69	0.35
834.985	0.35
835.28	0.34
835.575	0.34
835.87	0.34
836.164	0.32
836.459	0.26
836.754	0.29
837.048	0.31
837.343	0.31
837.637	0.32
837.932	0.3
838.226	0.3
838.52	0.29
838.814	0.28
839.109	0.24
839.403	0.25
839.697	0.28
839.991	0.24
840.285	0.23
840.579	0.18
840.873	0.16
841.166	0.12
841.46	0.1
841.754	0.14
842.047	0.15
842.341	0.17
842.635	0.19
842.928	0.21
843.222	0.22
843.515	0.22
843.808	0.27
844.101	0.3
844.395	0.3
844.688	0.29
844.981	0.28
845.274	0.28
845.567	0.31
845.86	0.31
846.153	0.33
846.446	0.29
846.738	0.25
847.031	0.23
847.324	0.21
847.616	0.25
847.909	0.3
848.201	0.31
848.494	0.3
848.786	0.24
849.079	0.26
849.371	0.29
849.663	0.33
849.955	0.34
850.247	0.34
850.539	0.33
850.831	0.32
851.123	0.28
851.415	0.29
851.707	0.31
851.999	0.35
852.291	0.36
852.582	0.27
852.874	0.26
853.166	0.29
853.457	0.35
853.749	0.3
854.04	0.34
854.331	0.42
854.623	0.46
854.914	0.47
855.205	0.56
855.496	0.52
855.787	0.56
856.078	0.58
856.369	0.65
856.66	0.59
856.951	0.7
857.242	0.77
857.533	0.67
857.823	0.59
858.114	0.56
858.404	0.52
858.695	0.55
858.985	0.53
859.276	0.53
859.566	0.43
859.857	0.51
860.147	0.48
860.437	0.4
860.727	0.42
861.017	0.42
861.307	0.36
861.597	0.38
861.887	0.21
862.177	0.36
862.467	0.51
862.757	0.47
863.046	0.5
863.336	0.48
863.626	0.49
863.915	0.56
864.205	0.73
864.494	0.72
864.783	0.66
865.073	0.92
865.362	0.78
865.651	0.54
865.94	0.64
866.229	0.56
866.518	0.59
866.807	0.68
867.096	0.74
867.385	0.58
867.674	0.69
867.963	0.81
868.252	0.8
868.54	0.85
868.829	1.01
869.117	1.01
869.406	1.09
869.694	1.24
869.983	1.24
870.271	1.13
870.559	1.27
