Data from AbsoluteIrradiance__2__17-12-05-989.txt Node

Date: Fri Jul 22 17:12:05 EDT 2022
User: enochs
Spectrometer: FLMS17410
Trigger mode: 0
Integration Time (sec): 1.545400E-1
Scans to average: 5
Electric dark correction enabled: true
Nonlinearity correction enabled: true
Boxcar width: 5
XAxis mode: Wavelengths
Number of Pixels in Spectrum: 2048
>>>>>Begin Spectral Data<<<<<
179.501	0
179.881	0
180.261	0
180.64	0
181.02	0
181.399	0
181.779	0
182.158	0
182.537	0
182.917	0
183.296	0
183.675	0
184.055	-0
184.434	-0
184.813	-0
185.192	-0
185.571	-0
185.95	-0
186.329	-0
186.708	-0
187.087	-0
187.466	-0
187.845	-0
188.224	0
188.603	0
188.982	0
189.361	0
189.739	0
190.118	0
190.497	0
190.875	0
191.254	0
191.632	0
192.011	0
192.39	0
192.768	0
193.146	0
193.525	0
193.903	0
194.282	0
194.66	0
195.038	0
195.416	0
195.794	0
196.173	0
196.551	0
196.929	0
197.307	0
197.685	0
198.063	0
198.441	0
198.819	0
199.197	0
199.575	0
199.952	0
200.33	3.58
200.708	3.7
201.086	3.48
201.463	3.44
201.841	3.36
202.218	3.51
202.596	3.19
202.974	3.19
203.351	2.96
203.729	2.48
204.106	2.48
204.483	2.09
204.861	1.83
205.238	1.68
205.615	1.68
205.993	1.53
206.37	1.47
206.747	1.41
207.124	1.25
207.501	1.29
207.878	1.16
208.255	1.15
208.632	1.2
209.009	1.2
209.386	1.26
209.763	1.16
210.14	1.04
210.517	0.92
210.894	0.98
211.271	0.93
211.647	0.89
212.024	0.87
212.401	0.85
212.777	0.79
213.154	0.86
213.531	0.85
213.907	0.85
214.284	0.86
214.66	0.82
215.036	0.7
215.413	0.68
215.789	0.65
216.166	0.75
216.542	0.72
216.918	0.69
217.294	0.65
217.67	0.63
218.047	0.57
218.423	0.53
218.799	0.54
219.175	0.53
219.551	0.54
219.927	0.54
220.303	0.46
220.679	0.45
221.054	0.47
221.43	0.49
221.806	0.49
222.182	0.51
222.558	0.46
222.933	0.5
223.309	0.51
223.685	0.49
224.06	0.47
224.436	0.45
224.811	0.41
225.187	0.36
225.562	0.35
225.938	0.34
226.313	0.32
226.688	0.35
227.064	0.29
227.439	0.31
227.814	0.3
228.189	0.3
228.564	0.27
228.94	0.27
229.315	0.28
229.69	0.24
230.065	0.23
230.44	0.22
230.815	0.18
231.19	0.18
231.564	0.13
231.939	0.12
232.314	0.12
232.689	0.12
233.064	0.14
233.438	0.15
233.813	0.18
234.188	0.19
234.562	0.18
234.937	0.19
235.311	0.18
235.686	0.18
236.06	0.18
236.435	0.17
236.809	0.19
237.183	0.16
237.558	0.17
237.932	0.16
238.306	0.15
238.68	0.15
239.055	0.15
239.429	0.15
239.803	0.16
240.177	0.17
240.551	0.17
240.925	0.16
241.299	0.16
241.673	0.15
242.047	0.14
242.42	0.15
242.794	0.15
243.168	0.16
243.542	0.16
243.915	0.17
244.289	0.17
244.663	0.19
245.036	0.18
245.41	0.17
245.783	0.17
246.157	0.15
246.53	0.15
246.904	0.14
247.277	0.12
247.651	0.14
248.024	0.13
248.397	0.14
248.77	0.13
249.144	0.12
249.517	0.12
249.89	0.12
250.263	0.12
250.636	0.11
251.009	0.12
251.382	0.12
251.755	0.12
252.128	0.11
252.501	0.12
252.874	0.12
253.246	0.12
253.619	0.13
253.992	0.13
254.365	0.12
254.737	0.11
255.11	0.11
255.483	0.1
255.855	0.09
256.228	0.08
256.6	0.06
256.973	0.05
257.345	0.05
257.717	0.04
258.09	0.04
258.462	0.05
258.834	0.05
259.206	0.05
259.579	0.05
259.951	0.06
260.323	0.06
260.695	0.07
261.067	0.07
261.439	0.07
261.811	0.07
262.183	0.07
262.555	0.07
262.927	0.07
263.299	0.07
263.67	0.06
264.042	0.07
264.414	0.06
264.786	0.05
265.157	0.06
265.529	0.06
265.9	0.06
266.272	0.06
266.643	0.06
267.015	0.06
267.386	0.05
267.758	0.05
268.129	0.05
268.5	0.05
268.872	0.05
269.243	0.05
269.614	0.05
269.985	0.05
270.357	0.05
270.728	0.05
271.099	0.05
271.47	0.05
271.841	0.05
272.212	0.05
272.583	0.06
272.953	0.06
273.324	0.06
273.695	0.06
274.066	0.06
274.437	0.06
274.807	0.05
275.178	0.05
275.549	0.05
275.919	0.04
276.29	0.04
276.66	0.04
277.031	0.04
277.401	0.04
277.772	0.04
278.142	0.04
278.512	0.04
278.883	0.05
279.253	0.05
279.623	0.05
279.993	0.05
280.364	0.05
280.734	0.05
281.104	0.05
281.474	0.05
281.844	0.05
282.214	0.05
282.584	0.05
282.954	0.04
283.323	0.04
283.693	0.04
284.063	0.04
284.433	0.04
284.802	0.05
285.172	0.05
285.542	0.05
285.911	0.05
286.281	0.05
286.65	0.05
287.02	0.04
287.389	0.05
287.759	0.05
288.128	0.05
288.498	0.05
288.867	0.05
289.236	0.05
289.605	0.05
289.975	0.05
290.344	0.05
290.713	0.04
291.082	0.05
291.451	0.05
291.82	0.04
292.189	0.04
292.558	0.04
292.927	0.04
293.296	0.04
293.664	0.04
294.033	0.04
294.402	0.04
294.771	0.04
295.139	0.04
295.508	0.04
295.877	0.04
296.245	0.04
296.614	0.04
296.982	0.04
297.351	0.03
297.719	0.04
298.087	0.04
298.456	0.04
298.824	0.04
299.192	0.04
299.561	0.03
299.929	0.03
300.297	0.03
300.665	0.03
301.033	0.03
301.401	0.03
301.769	0.03
302.137	0.03
302.505	0.03
302.873	0.03
303.241	0.03
303.609	0.03
303.976	0.03
304.344	0.03
304.712	0.03
305.079	0.04
305.447	0.04
305.815	0.04
306.182	0.04
306.55	0.04
306.917	0.04
307.285	0.03
307.652	0.04
308.019	0.04
308.387	0.03
308.754	0.03
309.121	0.03
309.489	0.03
309.856	0.02
310.223	0.02
310.59	0.03
310.957	0.03
311.324	0.03
311.691	0.03
312.058	0.03
312.425	0.03
312.792	0.03
313.159	0.03
313.525	0.03
313.892	0.03
314.259	0.03
314.626	0.03
314.992	0.03
315.359	0.03
315.725	0.03
316.092	0.03
316.459	0.02
316.825	0.03
317.191	0.02
317.558	0.02
317.924	0.02
318.29	0.02
318.657	0.02
319.023	0.02
319.389	0.02
319.755	0.02
320.121	0.02
320.488	0.02
320.854	0.03
321.22	0.03
321.586	0.03
321.952	0.03
322.317	0.03
322.683	0.03
323.049	0.03
323.415	0.02
323.781	0.02
324.146	0.02
324.512	0.03
324.878	0.02
325.243	0.02
325.609	0.02
325.974	0.03
326.34	0.03
326.705	0.03
327.071	0.02
327.436	0.03
327.801	0.02
328.167	0.02
328.532	0.02
328.897	0.02
329.262	0.02
329.627	0.02
329.992	0.02
330.357	0.02
330.722	0.02
331.087	0.02
331.452	0.02
331.817	0.02
332.182	0.02
332.547	0.02
332.912	0.02
333.277	0.02
333.641	0.02
334.006	0.02
334.371	0.02
334.735	0.02
335.1	0.02
335.464	0.02
335.829	0.02
336.193	0.02
336.558	0.02
336.922	0.02
337.286	0.02
337.651	0.02
338.015	0.03
338.379	0.03
338.743	0.03
339.107	0.03
339.471	0.02
339.836	0.02
340.2	0.02
340.564	0.02
340.927	0.02
341.291	0.02
341.655	0.02
342.019	0.02
342.383	0.02
342.747	0.02
343.11	0.02
343.474	0.02
343.838	0.02
344.201	0.02
344.565	0.02
344.928	0.02
345.292	0.02
345.655	0.03
346.019	0.02
346.382	0.02
346.745	0.02
347.109	0.02
347.472	0.02
347.835	0.02
348.198	0.02
348.561	0.02
348.925	0.02
349.288	0.02
349.651	0.02
350.014	0.02
350.377	0.02
350.739	0.02
351.102	0.02
351.465	0.03
351.828	0.03
352.191	0.03
352.553	0.03
352.916	0.03
353.279	0.03
353.641	0.02
354.004	0.02
354.366	0.02
354.729	0.02
355.091	0.02
355.454	0.02
355.816	0.02
356.178	0.02
356.541	0.02
356.903	0.02
357.265	0.02
357.627	0.02
357.989	0.02
358.351	0.02
358.714	0.02
359.076	0.02
359.437	0.02
359.799	0.02
360.161	0.02
360.523	0.02
360.885	0.02
361.247	0.02
361.608	0.02
361.97	0.02
362.332	0.02
362.693	0.02
363.055	0.02
363.417	0.02
363.778	0.02
364.14	0.02
364.501	0.02
364.862	0.02
365.224	0.02
365.585	0.02
365.946	0.02
366.307	0.02
366.669	0.02
367.03	0.02
367.391	0.02
367.752	0.02
368.113	0.02
368.474	0.02
368.835	0.03
369.196	0.03
369.557	0.03
369.918	0.03
370.278	0.03
370.639	0.03
371	0.03
371.361	0.03
371.721	0.03
372.082	0.03
372.442	0.03
372.803	0.03
373.163	0.03
373.524	0.03
373.884	0.03
374.245	0.03
374.605	0.03
374.965	0.03
375.325	0.03
375.686	0.03
376.046	0.03
376.406	0.03
376.766	0.03
377.126	0.02
377.486	0.03
377.846	0.03
378.206	0.02
378.566	0.03
378.926	0.03
379.285	0.03
379.645	0.03
380.005	0.03
380.365	0.03
380.724	0.03
381.084	0.03
381.443	0.03
381.803	0.03
382.163	0.03
382.522	0.03
382.881	0.03
383.241	0.02
383.6	0.02
383.959	0.03
384.319	0.03
384.678	0.03
385.037	0.03
385.396	0.03
385.755	0.03
386.114	0.03
386.473	0.03
386.832	0.03
387.191	0.03
387.55	0.03
387.909	0.03
388.268	0.03
388.627	0.03
388.985	0.03
389.344	0.04
389.703	0.04
390.061	0.04
390.42	0.04
390.778	0.04
391.137	0.04
391.495	0.05
391.854	0.05
392.212	0.05
392.57	0.05
392.929	0.05
393.287	0.05
393.645	0.05
394.003	0.05
394.362	0.05
394.72	0.06
395.078	0.06
395.436	0.07
395.794	0.07
396.152	0.08
396.51	0.08
396.867	0.09
397.225	0.09
397.583	0.1
397.941	0.11
398.298	0.12
398.656	0.13
399.014	0.13
399.371	0.14
399.729	0.15
400.086	0.16
400.444	0.18
400.801	0.19
401.159	0.2
401.516	0.22
401.873	0.23
402.23	0.25
402.588	0.27
402.945	0.3
403.302	0.32
403.659	0.35
404.016	0.37
404.373	0.41
404.73	0.44
405.087	0.48
405.444	0.52
405.801	0.58
406.158	0.65
406.514	0.74
406.871	0.83
407.228	0.92
407.584	1.01
407.941	1.09
408.298	1.18
408.654	1.27
409.011	1.36
409.367	1.46
409.723	1.56
410.08	1.65
410.436	1.74
410.792	1.84
411.149	1.96
411.505	2.11
411.861	2.26
412.217	2.44
412.573	2.63
412.929	2.83
413.285	3.05
413.641	3.28
413.997	3.52
414.353	3.79
414.709	4.06
415.065	4.36
415.42	4.68
415.776	5.01
416.132	5.37
416.487	5.74
416.843	6.14
417.199	6.56
417.554	7.01
417.91	7.47
418.265	7.95
418.62	8.48
418.976	9.01
419.331	9.56
419.686	10.15
420.042	10.75
420.397	11.37
420.752	12.01
421.107	12.66
421.462	13.31
421.817	13.95
422.172	14.58
422.527	15.2
422.882	15.82
423.237	16.36
423.592	16.85
423.946	17.25
424.301	17.59
424.656	17.87
425.01	18.08
425.365	18.26
425.72	18.41
426.074	18.46
426.429	18.49
426.783	18.46
427.137	18.44
427.492	18.41
427.846	18.39
428.2	18.38
428.555	18.35
428.909	18.29
429.263	18.17
429.617	18
429.971	17.8
430.325	17.52
430.679	17.19
431.033	16.79
431.387	16.34
431.741	15.82
432.095	15.24
432.449	14.62
432.802	13.97
433.156	13.34
433.51	12.72
433.863	12.09
434.217	11.49
434.571	10.91
434.924	10.37
435.278	9.85
435.631	9.37
435.984	8.93
436.338	8.52
436.691	8.14
437.044	7.84
437.397	7.59
437.751	7.4
438.104	7.22
438.457	7.02
438.81	6.8
439.163	6.58
439.516	6.37
439.869	6.15
440.222	5.93
440.575	5.71
440.927	5.46
441.28	5.17
441.633	4.86
441.986	4.57
442.338	4.32
442.691	4.1
443.043	3.9
443.396	3.72
443.748	3.55
444.101	3.4
444.453	3.26
444.805	3.12
445.158	2.99
445.51	2.86
445.862	2.74
446.214	2.63
446.567	2.52
446.919	2.43
447.271	2.33
447.623	2.24
447.975	2.16
448.327	2.09
448.679	2.02
449.03	1.95
449.382	1.89
449.734	1.84
450.086	1.79
450.437	1.74
450.789	1.69
451.141	1.66
451.492	1.62
451.844	1.58
452.195	1.54
452.547	1.51
452.898	1.48
453.249	1.44
453.601	1.41
453.952	1.38
454.303	1.34
454.654	1.31
455.005	1.28
455.357	1.24
455.708	1.21
456.059	1.17
456.41	1.14
456.76	1.1
457.111	1.07
457.462	1.04
457.813	1
458.164	0.96
458.515	0.93
458.865	0.9
459.216	0.87
459.566	0.83
459.917	0.8
460.267	0.77
460.618	0.74
460.968	0.71
461.319	0.68
461.669	0.66
462.019	0.64
462.37	0.61
462.72	0.59
463.07	0.57
463.42	0.55
463.77	0.53
464.12	0.52
464.47	0.5
464.82	0.49
465.17	0.47
465.52	0.46
465.87	0.44
466.22	0.43
466.569	0.42
466.919	0.41
467.269	0.4
467.618	0.39
467.968	0.38
468.318	0.37
468.667	0.36
469.017	0.35
469.366	0.34
469.715	0.33
470.065	0.33
470.414	0.32
470.763	0.31
471.112	0.31
471.462	0.3
471.811	0.29
472.16	0.29
472.509	0.28
472.858	0.27
473.207	0.27
473.556	0.26
473.905	0.26
474.253	0.25
474.602	0.25
474.951	0.24
475.3	0.24
475.648	0.24
475.997	0.23
476.345	0.23
476.694	0.23
477.042	0.22
477.391	0.22
477.739	0.22
478.088	0.21
478.436	0.21
478.784	0.21
479.132	0.2
479.481	0.2
479.829	0.2
480.177	0.19
480.525	0.19
480.873	0.19
481.221	0.19
481.569	0.19
481.917	0.18
482.265	0.18
482.612	0.18
482.96	0.18
483.308	0.18
483.656	0.18
484.003	0.19
484.351	0.19
484.698	0.19
485.046	0.19
485.393	0.2
485.741	0.21
486.088	0.22
486.435	0.23
486.783	0.24
487.13	0.26
487.477	0.27
487.824	0.29
488.171	0.31
488.518	0.33
488.866	0.35
489.212	0.37
489.559	0.38
489.906	0.4
490.253	0.41
490.6	0.42
490.947	0.42
491.294	0.42
491.64	0.42
491.987	0.41
492.333	0.4
492.68	0.39
493.027	0.38
493.373	0.37
493.719	0.36
494.066	0.35
494.412	0.34
494.759	0.33
495.105	0.32
495.451	0.31
495.797	0.3
496.143	0.29
496.489	0.28
496.835	0.27
497.181	0.26
497.527	0.26
497.873	0.25
498.219	0.24
498.565	0.23
498.911	0.22
499.257	0.22
499.602	0.21
499.948	0.2
500.294	0.2
500.639	0.19
500.985	0.18
501.33	0.18
501.676	0.17
502.021	0.16
502.366	0.16
502.712	0.15
503.057	0.15
503.402	0.14
503.747	0.13
504.092	0.13
504.438	0.12
504.783	0.12
505.128	0.11
505.473	0.11
505.817	0.1
506.162	0.1
506.507	0.09
506.852	0.09
507.197	0.09
507.541	0.09
507.886	0.08
508.231	0.08
508.575	0.08
508.92	0.08
509.264	0.07
509.609	0.07
509.953	0.07
510.297	0.07
510.642	0.07
510.986	0.07
511.33	0.07
511.674	0.07
512.019	0.07
512.363	0.07
512.707	0.07
513.051	0.07
513.395	0.07
513.739	0.07
514.083	0.07
514.426	0.07
514.77	0.06
515.114	0.06
515.458	0.06
515.801	0.06
516.145	0.06
516.488	0.06
516.832	0.06
517.175	0.06
517.519	0.06
517.862	0.06
518.206	0.06
518.549	0.06
518.892	0.06
519.235	0.06
519.579	0.06
519.922	0.06
520.265	0.06
520.608	0.06
520.951	0.06
521.294	0.06
521.637	0.06
521.98	0.06
522.323	0.06
522.665	0.06
523.008	0.06
523.351	0.06
523.693	0.06
524.036	0.06
524.379	0.06
524.721	0.06
525.064	0.06
525.406	0.06
525.748	0.06
526.091	0.06
526.433	0.06
526.775	0.06
527.118	0.06
527.46	0.06
527.802	0.06
528.144	0.06
528.486	0.06
528.828	0.06
529.17	0.06
529.512	0.06
529.854	0.06
530.195	0.06
530.537	0.06
530.879	0.06
531.221	0.06
531.562	0.06
531.904	0.06
532.245	0.06
532.587	0.06
532.928	0.06
533.27	0.06
533.611	0.06
533.953	0.06
534.294	0.06
534.635	0.07
534.976	0.07
535.317	0.07
535.659	0.08
536	0.08
536.341	0.08
536.682	0.09
537.023	0.09
537.363	0.09
537.704	0.1
538.045	0.1
538.386	0.11
538.727	0.11
539.067	0.12
539.408	0.13
539.748	0.14
540.089	0.16
540.429	0.18
540.77	0.2
541.11	0.23
541.451	0.26
541.791	0.3
542.131	0.35
542.471	0.41
542.812	0.49
543.152	0.6
543.492	0.72
543.832	0.84
544.172	0.97
544.512	1.09
544.852	1.2
545.192	1.3
545.531	1.4
545.871	1.48
546.211	1.54
546.551	1.58
546.89	1.6
547.23	1.64
547.57	1.71
547.909	1.79
548.248	1.86
548.588	1.89
548.927	1.9
549.267	1.9
549.606	1.88
549.945	1.85
550.284	1.81
550.623	1.76
550.963	1.66
551.302	1.52
551.641	1.35
551.98	1.2
552.319	1.07
552.657	0.97
552.996	0.88
553.335	0.8
553.674	0.73
554.013	0.67
554.351	0.61
554.69	0.56
555.028	0.51
555.367	0.47
555.705	0.43
556.044	0.4
556.382	0.37
556.721	0.34
557.059	0.31
557.397	0.28
557.735	0.26
558.074	0.24
558.412	0.22
558.75	0.2
559.088	0.18
559.426	0.17
559.764	0.15
560.102	0.14
560.439	0.13
560.777	0.13
561.115	0.12
561.453	0.11
561.79	0.11
562.128	0.1
562.466	0.1
562.803	0.09
563.141	0.09
563.478	0.09
563.816	0.09
564.153	0.09
564.49	0.08
564.827	0.08
565.165	0.08
565.502	0.08
565.839	0.08
566.176	0.08
566.513	0.08
566.85	0.08
567.187	0.08
567.524	0.07
567.861	0.07
568.198	0.07
568.534	0.07
568.871	0.07
569.208	0.07
569.544	0.07
569.881	0.07
570.218	0.07
570.554	0.07
570.891	0.06
571.227	0.07
571.563	0.07
571.9	0.07
572.236	0.07
572.572	0.07
572.908	0.07
573.244	0.07
573.581	0.06
573.917	0.06
574.253	0.06
574.588	0.06
574.924	0.06
575.26	0.06
575.596	0.06
575.932	0.06
576.268	0.06
576.603	0.06
576.939	0.06
577.274	0.06
577.61	0.06
577.946	0.07
578.281	0.08
578.616	0.1
578.952	0.12
579.287	0.14
579.622	0.16
579.958	0.17
580.293	0.19
580.628	0.21
580.963	0.24
581.298	0.26
581.633	0.28
581.968	0.29
582.303	0.3
582.638	0.3
582.973	0.3
583.307	0.3
583.642	0.31
583.977	0.31
584.311	0.32
584.646	0.32
584.98	0.32
585.315	0.32
585.649	0.33
585.984	0.34
586.318	0.35
586.652	0.36
586.987	0.37
587.321	0.37
587.655	0.38
587.989	0.38
588.323	0.38
588.657	0.39
588.991	0.4
589.325	0.41
589.659	0.42
589.993	0.42
590.327	0.42
590.661	0.42
590.994	0.42
591.328	0.41
591.662	0.4
591.995	0.39
592.329	0.38
592.662	0.35
592.996	0.33
593.329	0.31
593.662	0.3
593.996	0.29
594.329	0.29
594.662	0.29
594.995	0.3
595.328	0.31
595.661	0.31
595.994	0.32
596.327	0.32
596.66	0.32
596.993	0.31
597.326	0.31
597.659	0.3
597.992	0.28
598.324	0.27
598.657	0.25
598.99	0.23
599.322	0.21
599.655	0.2
599.987	0.19
600.32	0.19
600.652	0.19
600.984	0.19
601.317	0.2
601.649	0.2
601.981	0.21
602.313	0.21
602.645	0.22
602.977	0.22
603.309	0.22
603.641	0.22
603.973	0.21
604.305	0.21
604.637	0.2
604.969	0.19
605.3	0.17
605.632	0.16
605.964	0.15
606.295	0.14
606.627	0.14
606.958	0.13
607.29	0.13
607.621	0.13
607.952	0.13
608.284	0.13
608.615	0.13
608.946	0.14
609.277	0.14
609.609	0.15
609.94	0.16
610.271	0.17
610.602	0.19
610.933	0.21
611.263	0.23
611.594	0.27
611.925	0.34
612.256	0.44
612.587	0.6
612.917	0.82
613.248	1.06
613.578	1.28
613.909	1.48
614.239	1.64
614.57	1.78
614.9	1.89
615.23	1.98
615.561	2.03
615.891	2.03
616.221	1.95
616.551	1.81
616.881	1.64
617.211	1.46
617.541	1.31
617.871	1.17
618.201	1.06
618.531	0.95
618.861	0.85
619.191	0.76
619.52	0.69
619.85	0.61
620.18	0.55
620.509	0.49
620.839	0.45
621.168	0.41
621.498	0.38
621.827	0.35
622.157	0.34
622.486	0.32
622.815	0.32
623.144	0.31
623.473	0.31
623.803	0.31
624.132	0.31
624.461	0.31
624.79	0.32
625.119	0.32
625.447	0.32
625.776	0.32
626.105	0.33
626.434	0.33
626.762	0.33
627.091	0.33
627.42	0.33
627.748	0.33
628.077	0.33
628.405	0.33
628.734	0.33
629.062	0.33
629.39	0.32
629.719	0.32
630.047	0.31
630.375	0.31
630.703	0.3
631.031	0.3
631.359	0.3
631.687	0.29
632.015	0.3
632.343	0.31
632.671	0.32
632.999	0.33
633.326	0.35
633.654	0.35
633.982	0.36
634.309	0.36
634.637	0.35
634.964	0.35
635.292	0.33
635.619	0.31
635.947	0.29
636.274	0.26
636.601	0.22
636.928	0.2
637.256	0.17
637.583	0.15
637.91	0.13
638.237	0.12
638.564	0.11
638.891	0.1
639.218	0.1
639.544	0.09
639.871	0.09
640.198	0.09
640.525	0.09
640.851	0.09
641.178	0.09
641.504	0.08
641.831	0.08
642.157	0.08
642.484	0.08
642.81	0.08
643.137	0.08
643.463	0.08
643.789	0.08
644.115	0.08
644.441	0.08
644.767	0.08
645.093	0.08
645.419	0.08
645.745	0.08
646.071	0.08
646.397	0.08
646.723	0.08
647.049	0.08
647.374	0.09
647.7	0.09
648.026	0.09
648.351	0.09
648.677	0.09
649.002	0.09
649.328	0.09
649.653	0.09
649.978	0.09
650.303	0.09
650.629	0.09
650.954	0.09
651.279	0.09
651.604	0.1
651.929	0.1
652.254	0.11
652.579	0.12
652.904	0.13
653.229	0.13
653.554	0.14
653.878	0.15
654.203	0.15
654.528	0.15
654.852	0.15
655.177	0.15
655.501	0.15
655.826	0.14
656.15	0.14
656.474	0.13
656.799	0.13
657.123	0.13
657.447	0.12
657.771	0.12
658.096	0.11
658.42	0.11
658.744	0.11
659.068	0.11
659.392	0.11
659.715	0.11
660.039	0.1
660.363	0.1
660.687	0.1
661.01	0.1
661.334	0.1
661.658	0.1
661.981	0.09
662.305	0.09
662.628	0.09
662.952	0.09
663.275	0.09
663.598	0.08
663.921	0.09
664.245	0.09
664.568	0.09
664.891	0.1
665.214	0.1
665.537	0.1
665.86	0.1
666.183	0.1
666.506	0.1
666.828	0.1
667.151	0.1
667.474	0.1
667.797	0.09
668.119	0.09
668.442	0.09
668.764	0.08
669.087	0.08
669.409	0.08
669.732	0.08
670.054	0.08
670.376	0.08
670.698	0.08
671.021	0.07
671.343	0.07
671.665	0.07
671.987	0.07
672.309	0.07
672.631	0.07
672.953	0.07
673.275	0.07
673.596	0.06
673.918	0.06
674.24	0.06
674.561	0.06
674.883	0.06
675.205	0.06
675.526	0.06
675.848	0.06
676.169	0.06
676.49	0.06
676.812	0.06
677.133	0.06
677.454	0.06
677.775	0.06
678.096	0.06
678.417	0.06
678.739	0.06
679.059	0.06
679.38	0.06
679.701	0.06
680.022	0.06
680.343	0.06
680.664	0.06
680.984	0.06
681.305	0.06
681.625	0.06
681.946	0.06
682.266	0.06
682.587	0.06
682.907	0.06
683.228	0.06
683.548	0.06
683.868	0.06
684.188	0.06
684.508	0.06
684.829	0.06
685.149	0.06
685.469	0.06
685.789	0.06
686.108	0.05
686.428	0.05
686.748	0.05
687.068	0.05
687.387	0.05
687.707	0.05
688.027	0.05
688.346	0.05
688.666	0.06
688.985	0.06
689.305	0.07
689.624	0.07
689.943	0.08
690.263	0.08
690.582	0.08
690.901	0.09
691.22	0.09
691.539	0.09
691.858	0.09
692.177	0.08
692.496	0.08
692.815	0.08
693.134	0.07
693.452	0.07
693.771	0.06
694.09	0.06
694.408	0.05
694.727	0.05
695.045	0.05
695.364	0.06
695.682	0.06
696.001	0.06
696.319	0.06
696.637	0.06
696.956	0.06
697.274	0.06
697.592	0.06
697.91	0.07
698.228	0.06
698.546	0.06
698.864	0.05
699.182	0.05
699.499	0.05
699.817	0.05
700.135	0.05
700.453	0.04
700.77	0.04
701.088	0.04
701.405	0.04
701.723	0.04
702.04	0.03
702.358	0.03
702.675	0.03
702.992	0.03
703.31	0.03
703.627	0.03
703.944	0.03
704.261	0.03
704.578	0.03
704.895	0.03
705.212	0.03
705.529	0.03
705.846	0.04
706.162	0.04
706.479	0.04
706.796	0.05
707.112	0.05
707.429	0.05
707.746	0.06
708.062	0.07
708.378	0.08
708.695	0.1
709.011	0.12
709.327	0.13
709.644	0.14
709.96	0.15
710.276	0.16
710.592	0.17
710.908	0.19
711.224	0.19
711.54	0.2
711.856	0.2
712.172	0.19
712.488	0.17
712.803	0.17
713.119	0.16
713.435	0.16
713.75	0.15
714.066	0.15
714.381	0.14
714.697	0.14
715.012	0.13
715.327	0.13
715.643	0.13
715.958	0.13
716.273	0.13
716.588	0.13
716.903	0.12
717.218	0.11
717.533	0.09
717.848	0.08
718.163	0.08
718.478	0.06
718.793	0.06
719.108	0.05
719.422	0.05
719.737	0.05
720.052	0.04
720.366	0.04
720.681	0.04
720.995	0.04
721.309	0.04
721.624	0.03
721.938	0.03
722.252	0.03
722.566	0.03
722.881	0.03
723.195	0.03
723.509	0.03
723.823	0.02
724.137	0.02
724.45	0.02
724.764	0.02
725.078	0.02
725.392	0.03
725.706	0.03
726.019	0.03
726.333	0.03
726.646	0.03
726.96	0.03
727.273	0.03
727.587	0.03
727.9	0.03
728.213	0.03
728.526	0.03
728.84	0.03
729.153	0.03
729.466	0.02
729.779	0.02
730.092	0.01
730.405	0.01
730.718	0.01
731.03	0.01
731.343	0.01
731.656	0.01
731.969	0.01
732.281	0.01
732.594	0.01
732.906	0.02
733.219	0.02
733.531	0.03
733.844	0.03
734.156	0.03
734.468	0.03
734.78	0.03
735.093	0.02
735.405	0.02
735.717	0.02
736.029	0.03
736.341	0.02
736.653	0.02
736.965	0.02
737.276	0.02
737.588	0.02
737.9	0.02
738.211	0.02
738.523	0.02
738.835	0.02
739.146	0.02
739.458	0.02
739.769	0.03
740.08	0.03
740.392	0.03
740.703	0.02
741.014	0.02
741.325	0.02
741.636	0.02
741.947	0.02
742.258	0.02
742.569	0.02
742.88	0.02
743.191	0.01
743.502	0.02
743.813	0.02
744.123	0.02
744.434	0.02
744.745	0.02
745.055	0.02
745.366	0.03
745.676	0.03
745.987	0.03
746.297	0.03
746.607	0.04
746.917	0.04
747.228	0.04
747.538	0.04
747.848	0.04
748.158	0.04
748.468	0.03
748.778	0.02
749.088	0.02
749.397	0.02
749.707	0.01
750.017	0.01
750.327	0.01
750.636	0
750.946	0
751.255	0
751.565	0
751.874	0.01
752.184	0.01
752.493	0.01
752.802	0.01
753.111	0.01
753.421	0.01
753.73	0.02
754.039	0.01
754.348	0.02
754.657	0.02
754.966	0.01
755.274	0.01
755.583	0.02
755.892	0.02
756.201	0.02
756.509	0.02
756.818	0.02
757.127	0.02
757.435	0.02
757.743	0.03
758.052	0.03
758.36	0.03
758.668	0.04
758.977	0.04
759.285	0.04
759.593	0.04
759.901	0.04
760.209	0.04
760.517	0.04
760.825	0.04
761.133	0.04
761.441	0.04
761.749	0.04
762.056	0.03
762.364	0.04
762.672	0.04
762.979	0.04
763.287	0.04
763.594	0.04
763.902	0.04
764.209	0.04
764.516	0.05
764.823	0.05
765.131	0.05
765.438	0.05
765.745	0.05
766.052	0.04
766.359	0.05
766.666	0.05
766.973	0.05
767.28	0.05
767.587	0.04
767.893	0.04
768.2	0.03
768.507	0.03
768.813	0.03
769.12	0.02
769.426	0.03
769.733	0.03
770.039	0.02
770.345	0.02
770.652	0.02
770.958	0.02
771.264	0.03
771.57	0.02
771.876	0.02
772.182	0.03
772.488	0.03
772.794	0.02
773.1	0.02
773.406	0.02
773.712	0.02
774.017	0.03
774.323	0.02
774.628	0.02
774.934	0.02
775.24	0.02
775.545	0.02
775.85	0.02
776.156	0.03
776.461	0.03
776.766	0.03
777.071	0.03
777.377	0.02
777.682	0.03
777.987	0.02
778.292	0.03
778.597	0.04
778.901	0.03
779.206	0.04
779.511	0.04
779.816	0.05
780.12	0.05
780.425	0.06
780.73	0.05
781.034	0.04
781.339	0.04
781.643	0.06
781.947	0.04
782.252	0.04
782.556	0.04
782.86	0.03
783.164	0.03
783.468	0.03
783.772	0.04
784.076	0.04
784.38	0.06
784.684	0.06
784.988	0.05
785.292	0.05
785.595	0.06
785.899	0.06
786.203	0.07
786.506	0.05
786.81	0.04
787.113	0.04
787.417	0.04
787.72	0.04
788.023	0.04
788.327	0.05
788.63	0.05
788.933	0.06
789.236	0.07
789.539	0.06
789.842	0.08
790.145	0.08
790.448	0.07
790.751	0.07
791.054	0.06
791.356	0.06
791.659	0.05
791.962	0.05
792.264	0.04
792.567	0.03
792.869	0.02
793.172	0.02
793.474	0.02
793.776	0.02
794.078	0.02
794.381	0.03
794.683	0.04
794.985	0.03
795.287	0.04
795.589	0.04
795.891	0.05
796.193	0.05
796.495	0.06
796.796	0.07
797.098	0.08
797.4	0.08
797.701	0.09
798.003	0.08
798.304	0.09
798.606	0.09
798.907	0.09
799.209	0.1
799.51	0.09
799.811	0.07
800.112	0.06
800.414	0.04
800.715	0.03
801.016	0.02
801.317	0.02
801.618	0.03
801.919	0.03
802.219	0.02
802.52	0.02
802.821	0.02
803.122	0.02
803.422	0.04
803.723	0.05
804.023	0.05
804.324	0.07
804.624	0.07
804.924	0.06
805.225	0.06
805.525	0.06
805.825	0.06
806.125	0.07
806.425	0.08
806.725	0.07
807.025	0.05
807.325	0.05
807.625	0.02
807.925	0.03
808.225	0.03
808.525	0.03
808.824	0.03
809.124	0.01
809.423	0.01
809.723	-0
810.022	0.01
810.322	0.02
810.621	0.05
810.92	0.06
811.22	0.04
811.519	0.05
811.818	0.04
812.117	0.05
812.416	0.04
812.715	0.05
813.014	0.06
813.313	0.04
813.612	0.07
813.91	0.07
814.209	0.06
814.508	0.08
814.806	0.07
815.105	0.06
815.403	0.09
815.702	0.1
816	0.12
816.298	0.1
816.597	0.11
816.895	0.09
817.193	0.06
817.491	0.1
817.789	0.09
818.087	0.1
818.385	0.12
818.683	0.09
818.981	0.1
819.279	0.07
819.577	0.08
819.874	0.1
820.172	0.11
820.469	0.11
820.767	0.09
821.064	0.12
821.362	0.11
821.659	0.12
821.957	0.11
822.254	0.12
822.551	0.14
822.848	0.15
823.145	0.11
823.442	0.11
823.739	0.12
824.036	0.14
824.333	0.11
824.63	0.09
824.927	0.07
825.223	0.08
825.52	0.1
825.817	0.07
826.113	0.05
826.41	0.05
826.706	0.04
827.003	0.05
827.299	0.04
827.595	0.05
827.892	0.06
828.188	0.09
828.484	0.08
828.78	0.06
829.076	0.09
829.372	0.09
829.668	0.11
829.964	0.11
830.26	0.09
830.555	0.11
830.851	0.11
831.147	0.14
831.442	0.14
831.738	0.17
832.033	0.16
832.329	0.16
832.624	0.17
832.919	0.2
833.215	0.23
833.51	0.27
833.805	0.28
834.1	0.27
834.395	0.28
834.69	0.27
834.985	0.23
835.28	0.24
835.575	0.26
835.87	0.27
836.164	0.23
836.459	0.2
836.754	0.18
837.048	0.17
837.343	0.17
837.637	0.15
837.932	0.14
838.226	0.15
838.52	0.14
838.814	0.07
839.109	0.06
839.403	0.06
839.697	0.05
839.991	0.03
840.285	0.02
840.579	0.01
840.873	0.03
841.166	-0.01
841.46	-0
841.754	0.05
842.047	0.13
842.341	0.09
842.635	0.1
842.928	0.18
843.222	0.18
843.515	0.18
843.808	0.24
844.101	0.22
844.395	0.21
844.688	0.2
844.981	0.21
845.274	0.17
845.567	0.27
845.86	0.27
846.153	0.2
846.446	0.2
846.738	0.19
847.031	0.16
847.324	0.17
847.616	0.2
847.909	0.26
848.201	0.23
848.494	0.23
848.786	0.14
849.079	0.11
849.371	0.15
849.663	0.11
849.955	0.1
850.247	0.1
850.539	0.09
850.831	0.16
851.123	0.09
851.415	0.05
851.707	0.1
851.999	0.13
852.291	0.21
852.582	0.19
852.874	0.19
853.166	0.19
853.457	0.24
853.749	0.2
854.04	0.16
854.331	0.26
854.623	0.28
854.914	0.27
855.205	0.3
855.496	0.27
855.787	0.3
856.078	0.33
856.369	0.43
856.66	0.36
856.951	0.48
857.242	0.51
857.533	0.4
857.823	0.44
858.114	0.41
858.404	0.45
858.695	0.5
858.985	0.48
859.276	0.48
859.566	0.34
859.857	0.46
860.147	0.37
860.437	0.35
860.727	0.41
861.017	0.41
861.307	0.31
861.597	0.25
861.887	0.12
862.177	0.23
862.467	0.37
862.757	0.47
863.046	0.4
863.336	0.34
863.626	0.28
863.915	0.21
864.205	0.27
864.494	0.38
864.783	0.34
865.073	0.47
865.362	0.35
865.651	0.1
865.94	0.14
866.229	0.15
866.518	0.29
866.807	0.41
867.096	0.57
867.385	0.56
867.674	0.68
867.963	0.74
868.252	0.8
868.54	0.84
868.829	1.03
869.117	0.99
869.406	1.05
869.694	1.13
869.983	1.1
870.271	1
870.559	0.94
